Model,DPO2002B
Firmware Version,1.52

Point Format,Y,
Horizontal Units,S,
Horizontal Scale,0.004,
Sample Interval,1.28e-05,
Filter Frequency,290000,
Record Length,3124,
Gating,0.0% to 100.0%,
Probe Attenuation,10,
Vertical Units,V,
Vertical Offset,0,
Vertical Scale,1,
Label,,
TIME,CH1,CH1 Peak Detect
-3.760e-03,-4.02,-4.66
-3.747e-03,-4.42,-3.94
-3.734e-03,-4.54,-4.66
-3.722e-03,-4.26,-4.02
-3.709e-03,-3.98,-4.54
-3.696e-03,-4.46,-3.86
-3.683e-03,-4.02,-4.34
-3.670e-03,-4.14,-3.82
-3.658e-03,-3.94,-4.26
-3.645e-03,-3.78,-3.58
-3.632e-03,-3.98,-4.5
-3.619e-03,-4.06,-3.66
-3.606e-03,-4.22,-4.74
-3.594e-03,-4.58,-3.94
-3.581e-03,-4.5,-4.7
-3.568e-03,-4.54,-4.14
-3.555e-03,-4.42,-4.54
-3.542e-03,-4.38,-4.18
-3.530e-03,-3.98,-4.78
-3.517e-03,-4.42,-3.9
-3.504e-03,-4.34,-4.74
-3.491e-03,-3.82,-3.78
-3.478e-03,-4.1,-4.5
-3.466e-03,-4.14,-3.86
-3.453e-03,-4.06,-4.42
-3.440e-03,-4.3,-3.86
-3.427e-03,-4.26,-4.46
-3.414e-03,-4.02,-3.9
-3.402e-03,-4.42,-4.58
-3.389e-03,-4.14,-3.86
-3.376e-03,-4.02,-4.26
-3.363e-03,-3.98,-3.86
-3.350e-03,-3.94,-4.3
-3.338e-03,-4.18,-3.82
-3.325e-03,-4.06,-4.14
-3.312e-03,-3.9,-3.58
-3.299e-03,-4.62,-4.74
-3.286e-03,-4.14,-3.98
-3.274e-03,-4.02,-4.58
-3.261e-03,-4.5,-3.86
-3.248e-03,-4.5,-4.74
-3.235e-03,-4.58,-4.14
-3.222e-03,-3.98,-4.42
-3.210e-03,-4.1,-3.82
-3.197e-03,-4.02,-4.18
-3.184e-03,-3.82,-3.54
-3.171e-03,-3.94,-4.3
-3.158e-03,-4.02,-3.5
-3.146e-03,-3.7,-4.18
-3.133e-03,-3.82,-3.42
-3.120e-03,-4.54,-4.62
-3.107e-03,-4.22,-3.82
-3.094e-03,-4.66,-4.78
-3.082e-03,-4.58,-4.18
-3.069e-03,-4.38,-4.62
-3.056e-03,-4.02,-3.74
-3.043e-03,-4.5,-4.66
-3.030e-03,-4.38,-4.26
-3.018e-03,-4.02,-4.46
-3.005e-03,-3.86,-3.66
-2.992e-03,-4.38,-4.5
-2.979e-03,-3.66,-3.58
-2.966e-03,-4.06,-4.46
-2.954e-03,-4.18,-3.62
-2.941e-03,-4.14,-4.42
-2.928e-03,-4.3,-3.98
-2.915e-03,-4.02,-4.5
-2.902e-03,-4.22,-3.82
-2.890e-03,-4.22,-4.46
-2.877e-03,-4.22,-4.02
-2.864e-03,-3.98,-4.22
-2.851e-03,-3.86,-3.78
-2.838e-03,-3.82,-4.18
-2.826e-03,-4.1,-3.62
-2.813e-03,-3.86,-4.38
-2.800e-03,-3.98,-3.46
-2.787e-03,-4.02,-4.74
-2.774e-03,-4.3,-3.94
-2.762e-03,-4.06,-4.34
-2.749e-03,-4.22,-3.74
-2.736e-03,-4.3,-4.42
-2.723e-03,-3.98,-3.82
-2.710e-03,-4.46,-4.62
-2.698e-03,-4.22,-3.74
-2.685e-03,-4.02,-4.66
-2.672e-03,-4.06,-3.62
-2.659e-03,-3.82,-4.66
-2.646e-03,-4.14,-3.66
-2.634e-03,-4.18,-4.58
-2.621e-03,-4.02,-3.82
-2.608e-03,-4.54,-4.7
-2.595e-03,-4.3,-4.02
-2.582e-03,-4.26,-4.42
-2.570e-03,-4.26,-4.06
-2.557e-03,-4.06,-4.7
-2.544e-03,-4.62,-3.9
-2.531e-03,-4.34,-4.54
-2.518e-03,-4.06,-3.82
-2.506e-03,-4.22,-4.42
-2.493e-03,-3.94,-3.78
-2.480e-03,-4.14,-4.3
-2.467e-03,-3.62,-3.54
-2.454e-03,-4.18,-4.3
-2.442e-03,-4.1,-3.82
-2.429e-03,-4.46,-4.66
-2.416e-03,-4.58,-4.02
-2.403e-03,-4.02,-4.38
-2.390e-03,-4.14,-3.82
-2.378e-03,-4.26,-4.54
-2.365e-03,-4.14,-4.02
-2.352e-03,-4.06,-4.58
-2.339e-03,-4.3,-3.98
-2.326e-03,-4.06,-4.3
-2.314e-03,-4.18,-3.94
-2.301e-03,-4.38,-4.7
-2.288e-03,-4.14,-3.74
-2.275e-03,-3.94,-4.7
-2.262e-03,-4.02,-3.82
-2.250e-03,-4.42,-4.5
-2.237e-03,-4.26,-3.86
-2.224e-03,-4.5,-4.78
-2.211e-03,-4.3,-4.14
-2.198e-03,-4.18,-4.62
-2.186e-03,-4.46,-3.94
-2.173e-03,-4.1,-4.38
-2.160e-03,-4.1,-3.82
-2.147e-03,-4.06,-4.54
-2.134e-03,-3.94,-3.86
-2.122e-03,-4.26,-4.38
-2.109e-03,-4.3,-3.94
-2.096e-03,-4.22,-4.5
-2.083e-03,-4.06,-4.02
-2.070e-03,-4.46,-4.54
-2.058e-03,-4.34,-4.1
-2.045e-03,-4.02,-4.62
-2.032e-03,-4.42,-3.98
-2.019e-03,-4.34,-4.5
-2.006e-03,-3.58,-3.38
-1.994e-03,-4.26,-4.42
-1.981e-03,-4.26,-3.58
-1.968e-03,-4.1,-4.42
-1.955e-03,-4.06,-3.9
-1.942e-03,-4.42,-4.5
-1.930e-03,-4.02,-3.94
-1.917e-03,-4.14,-4.54
-1.904e-03,-4.46,-4.06
-1.891e-03,-4.26,-4.7
-1.878e-03,-4.62,-3.78
-1.866e-03,-4.14,-4.58
-1.853e-03,-3.82,-3.66
-1.840e-03,-4.02,-4.22
-1.827e-03,-4.02,-3.66
-1.814e-03,-4.14,-4.42
-1.802e-03,-4.14,-3.86
-1.789e-03,-4.26,-4.38
-1.776e-03,-4.14,-3.94
-1.763e-03,-4.3,-4.54
-1.750e-03,-4.1,-3.82
-1.738e-03,-4.34,-4.5
-1.725e-03,-4.06,-3.86
-1.712e-03,-4.22,-4.3
-1.699e-03,-3.98,-3.86
-1.686e-03,-4.18,-4.3
-1.674e-03,-4.22,-3.98
-1.661e-03,-4.02,-4.42
-1.648e-03,-4.14,-3.82
-1.635e-03,-3.82,-4.46
-1.622e-03,-4.1,-3.74
-1.610e-03,-4.06,-4.46
-1.597e-03,-3.98,-3.78
-1.584e-03,-4.14,-4.34
-1.571e-03,-3.74,-3.62
-1.558e-03,-4.42,-4.5
-1.546e-03,-4.18,-4.06
-1.533e-03,-4.38,-4.46
-1.520e-03,-4.3,-4.02
-1.507e-03,-3.7,-4.38
-1.494e-03,-4.14,-3.66
-1.482e-03,-4.3,-4.46
-1.469e-03,-4.26,-3.98
-1.456e-03,-4.02,-4.5
-1.443e-03,-4.42,-3.82
-1.430e-03,-4.38,-4.7
-1.418e-03,-4.5,-4.06
-1.405e-03,-4.5,-4.66
-1.392e-03,-3.94,-3.82
-1.379e-03,-4.38,-4.58
-1.366e-03,-4.26,-3.82
-1.354e-03,-4.14,-4.22
-1.341e-03,-3.9,-3.74
-1.328e-03,-4.34,-4.46
-1.315e-03,-4.14,-3.9
-1.302e-03,-3.98,-4.46
-1.290e-03,-4.34,-3.9
-1.277e-03,-4.38,-4.86
-1.264e-03,-4.78,-3.94
-1.251e-03,-4.18,-4.5
-1.238e-03,-3.86,-3.7
-1.226e-03,-4.38,-4.54
-1.213e-03,-4.46,-3.82
-1.200e-03,-3.74,-4.34
-1.187e-03,-4.1,-3.66
-1.174e-03,-3.78,-4.26
-1.162e-03,-4.22,-3.7
-1.149e-03,-4.14,-4.34
-1.136e-03,-4.26,-3.94
-1.123e-03,-4.7,-4.78
-1.110e-03,-4.42,-4.1
-1.098e-03,-4.34,-4.66
-1.085e-03,-4.54,-4.1
-1.072e-03,-4.58,-4.66
-1.059e-03,-4.3,-3.86
-1.046e-03,-4.42,-4.74
-1.034e-03,-4.02,-3.86
-1.021e-03,-4.1,-4.38
-1.008e-03,-4.18,-3.9
-9.952e-04,-4.3,-4.46
-9.824e-04,-4.3,-3.9
-9.696e-04,-3.94,-4.3
-9.568e-04,-4.22,-3.86
-9.440e-04,-4.3,-4.46
-9.312e-04,-4.26,-4.02
-9.184e-04,-4.46,-4.74
-9.056e-04,-4.26,-4.02
-8.928e-04,-4.46,-4.62
-8.800e-04,-3.98,-3.82
-8.672e-04,-4.14,-4.34
-8.544e-04,-3.7,-3.46
-8.416e-04,-3.78,-4.18
-8.288e-04,-4.1,-3.66
-8.160e-04,-4.1,-4.54
-8.032e-04,-4.34,-3.86
-7.904e-04,-3.78,-4.62
-7.776e-04,-4.34,-3.58
-7.648e-04,-3.82,-4.5
-7.520e-04,-4.1,-3.58
-7.392e-04,-4.38,-4.58
-7.264e-04,-4.18,-3.9
-7.136e-04,-4.34,-4.58
-7.008e-04,-4.14,-3.86
-6.880e-04,-4.26,-4.38
-6.752e-04,-4.26,-3.74
-6.624e-04,-3.98,-4.18
-6.496e-04,-4.1,-3.82
-6.368e-04,-4.14,-4.42
-6.240e-04,-4.1,-3.98
-6.112e-04,-4.18,-4.74
-5.984e-04,-4.58,-4.1
-5.856e-04,-4.42,-4.7
-5.728e-04,-4.38,-3.86
-5.600e-04,-4.3,-4.58
-5.472e-04,-4.06,-3.74
-5.344e-04,-3.74,-4.5
-5.216e-04,-3.94,-3.5
-5.088e-04,-3.46,-4.26
-4.960e-04,-4.22,-3.38
-4.832e-04,-3.98,-4.5
-4.704e-04,-4.1,-3.74
-4.576e-04,-4.18,-4.78
-4.448e-04,-4.7,-4.1
-4.320e-04,-4.06,-4.7
-4.192e-04,-4.62,-3.82
-4.064e-04,-4.38,-4.5
-3.936e-04,-4.34,-3.9
-3.808e-04,-4.26,-4.34
-3.680e-04,-3.82,-3.74
-3.552e-04,-4.06,-4.38
-3.424e-04,-4.02,-3.74
-3.296e-04,-4.22,-4.5
-3.168e-04,-3.98,-3.94
-3.040e-04,-4.18,-4.54
-2.912e-04,-4.14,-3.78
-2.784e-04,-4.34,-4.54
-2.656e-04,-4.3,-3.86
-2.528e-04,-4.06,-4.38
-2.400e-04,-4.1,-3.94
-2.272e-04,-4.34,-4.54
-2.144e-04,-4.22,-4.18
-2.016e-04,-4.18,-4.38
-1.888e-04,-3.78,-3.66
-1.760e-04,-3.86,-4.34
-1.632e-04,-4.14,-3.74
-1.504e-04,-4.38,-4.54
-1.376e-04,-4.06,-3.82
-1.248e-04,-3.78,-4.3
-1.120e-04,-4.22,-3.54
-9.920e-05,-4.1,-4.7
-8.640e-05,-4.38,-3.98
-7.360e-05,-4.06,-4.38
-6.080e-05,-4.26,-3.7
-4.800e-05,-4.18,-4.5
-3.520e-05,-4.14,-4.06
-2.240e-05,-4.34,-7.06
-9.600e-06,-4.14,-4.02
3.200e-06,3.1,-7.06
1.600e-05,3.1,3.1
2.880e-05,-7.06,-7.06
4.160e-05,-4.98,-1.74
5.440e-05,-4.06,-5.46
6.720e-05,-4.42,-3.78
8.000e-05,-4.02,-4.22
9.280e-05,-3.9,-3.5
1.056e-04,-3.78,-4.14
1.184e-04,-4.06,-3.66
1.312e-04,-4.18,-4.5
1.440e-04,-4.42,-4.02
1.568e-04,-3.78,-4.22
1.696e-04,-3.94,-3.54
1.824e-04,-4.74,-4.86
1.952e-04,-4.1,-3.94
2.080e-04,-4.34,-4.7
2.208e-04,-4.54,-4.14
2.336e-04,-4.5,-4.66
2.464e-04,-4.34,-4.1
2.592e-04,-4.5,-4.78
2.720e-04,-4.34,-4.18
2.848e-04,-4.22,-4.46
2.976e-04,-3.98,-3.9
3.104e-04,-3.9,-4.42
3.232e-04,-4.14,-3.78
3.360e-04,-4.46,-4.54
3.488e-04,-4.3,-3.78
3.616e-04,-4.22,-4.7
3.744e-04,-4.54,-4.1
3.872e-04,-4.38,-4.66
4.000e-04,-4.18,-3.9
4.128e-04,-4.54,-4.58
4.256e-04,-4.46,-3.94
4.384e-04,-4.22,-4.34
4.512e-04,-3.74,-3.62
4.640e-04,-4.34,-4.58
4.768e-04,-3.98,-3.82
4.896e-04,-4.38,-4.74
5.024e-04,-4.38,-4.06
5.152e-04,-4.02,-4.78
5.280e-04,-4.26,-3.9
5.408e-04,-4.58,-4.9
5.536e-04,-4.78,-4.3
5.664e-04,-4.46,-5.02
5.792e-04,-4.82,-4.1
5.920e-04,-4.3,-4.86
6.048e-04,-4.22,-4.14
6.176e-04,-4.5,-4.62
6.304e-04,-4.38,-4.18
6.432e-04,-4.06,-4.5
6.560e-04,-4.3,-3.94
6.688e-04,-3.9,-4.58
6.816e-04,-4.18,-3.78
6.944e-04,-4.5,-4.74
7.072e-04,-4.58,-4.26
7.200e-04,-4.18,-4.9
7.328e-04,-4.54,-4.06
7.456e-04,-4.1,-5.02
7.584e-04,-4.94,-3.94
7.712e-04,-4.42,-4.62
7.840e-04,-3.9,-3.82
7.968e-04,-4.38,-4.58
8.096e-04,-4.06,-3.74
8.224e-04,-4.58,-4.86
8.352e-04,-3.98,-3.9
8.480e-04,-4.46,-4.54
8.608e-04,-3.86,-3.74
8.736e-04,-4.18,-4.46
8.864e-04,-4.22,-3.98
8.992e-04,-4.34,-4.54
9.120e-04,-4.38,-4.1
9.248e-04,-4.26,-4.46
9.376e-04,-4.14,-3.86
9.504e-04,-4.06,-4.34
9.632e-04,-3.98,-3.86
9.760e-04,-3.9,-4.34
9.888e-04,-4.26,-3.58
1.002e-03,-4.38,-4.66
1.014e-03,-4.34,-4.14
1.027e-03,-4.14,-4.66
1.040e-03,-4.3,-3.98
1.053e-03,-3.94,-4.46
1.066e-03,-3.9,-3.78
1.078e-03,-4.14,-4.38
1.091e-03,-4.26,-3.98
1.104e-03,-4.02,-4.66
1.117e-03,-4.62,-3.86
1.130e-03,-4.42,-4.74
1.142e-03,-3.74,-3.66
1.155e-03,-4.14,-4.54
1.168e-03,-4.14,-4.06
1.181e-03,-4.1,-4.34
1.194e-03,-4.02,-3.86
1.206e-03,-4.54,-4.74
1.219e-03,-4.62,-4.18
1.232e-03,-4.46,-4.7
1.245e-03,-4.42,-4.02
1.258e-03,-3.86,-4.34
1.270e-03,-4.22,-3.7
1.283e-03,-3.9,-4.38
1.296e-03,-4.1,-3.82
1.309e-03,-4.18,-4.46
1.322e-03,-4.38,-3.94
1.334e-03,-4.38,-4.54
1.347e-03,-4.18,-4.02
1.360e-03,-4.3,-4.46
1.373e-03,-4.34,-4.06
1.386e-03,-4.58,-4.82
1.398e-03,-3.98,-3.78
1.411e-03,-4.42,-4.54
1.424e-03,-4.3,-3.98
1.437e-03,-4.26,-4.74
1.450e-03,-4.42,-4.22
1.462e-03,-4.38,-4.74
1.475e-03,-3.98,-3.9
1.488e-03,-3.94,-4.5
1.501e-03,-4.26,-3.82
1.514e-03,-3.98,-4.34
1.526e-03,-4.22,-3.9
1.539e-03,-4.1,-4.58
1.552e-03,-4.3,-3.98
1.565e-03,-4.14,-4.42
1.578e-03,-3.94,-3.7
1.590e-03,-4.18,-4.34
1.603e-03,-4.1,-3.78
1.616e-03,-3.82,-4.42
1.629e-03,-4.1,-3.74
1.642e-03,-4.58,-4.74
1.654e-03,-4.34,-4.14
1.667e-03,-4.1,-4.58
1.680e-03,-4.34,-4.02
1.693e-03,-4.38,-4.74
1.706e-03,-4.34,-4.18
1.718e-03,-4.5,-4.66
1.731e-03,-3.9,-3.62
1.744e-03,-4.22,-4.42
1.757e-03,-4.3,-3.74
1.770e-03,-3.94,-4.22
1.782e-03,-4.02,-3.7
1.795e-03,-4.3,-4.38
1.808e-03,-3.86,-3.58
1.821e-03,-4.18,-4.42
1.834e-03,-3.94,-3.78
1.846e-03,-4.46,-4.54
1.859e-03,-4.14,-3.94
1.872e-03,-4.06,-4.46
1.885e-03,-4.22,-3.98
1.898e-03,-4.1,-4.46
1.910e-03,-3.94,-3.7
1.923e-03,-4.14,-4.26
1.936e-03,-4.1,-3.74
1.949e-03,-4.22,-4.3
1.962e-03,-3.94,-3.86
1.974e-03,-4.1,-4.42
1.987e-03,-4.34,-4.02
2.000e-03,-4.1,-4.38
2.013e-03,-4.18,-4.02
2.026e-03,-4.06,-4.42
2.038e-03,-4.14,-3.9
2.051e-03,-4.42,-4.54
2.064e-03,-4.02,-3.82
2.077e-03,-4.26,-4.46
2.090e-03,-4.06,-3.9
2.102e-03,-4.34,-4.42
2.115e-03,-4.06,-3.62
2.128e-03,-4.18,-4.46
2.141e-03,-4.14,-3.94
2.154e-03,-3.86,-4.3
2.166e-03,-4.06,-3.82
2.179e-03,-4.1,-4.38
2.192e-03,-4.3,-3.82
2.205e-03,-4.02,-4.5
2.218e-03,-4.34,-3.94
2.230e-03,-4.5,-4.54
2.243e-03,-3.98,-3.78
2.256e-03,-4.22,-4.34
2.269e-03,-4.18,-4.02
2.282e-03,-4.42,-4.54
2.294e-03,-4.06,-3.9
2.307e-03,-3.74,-4.42
2.320e-03,-4.22,-3.62
2.333e-03,-4.1,-4.54
2.346e-03,-4.42,-3.98
2.358e-03,-3.98,-4.86
2.371e-03,-4.34,-3.82
2.384e-03,-4.54,-4.9
2.397e-03,-4.22,-4.14
2.410e-03,-4.02,-4.42
2.422e-03,-4.14,-3.82
2.435e-03,-4.02,-4.34
2.448e-03,-4.26,-3.86
2.461e-03,-4.18,-4.54
2.474e-03,-4.18,-3.82
2.486e-03,-3.82,-4.18
2.499e-03,-4.1,-3.74
2.512e-03,-3.98,-4.78
2.525e-03,-4.66,-3.86
2.538e-03,-4.3,-4.46
2.550e-03,-3.9,-3.78
2.563e-03,-4.3,-4.62
2.576e-03,-4.46,-3.9
2.589e-03,-3.82,-4.42
2.602e-03,-4.26,-3.74
2.614e-03,-3.94,-4.1
2.627e-03,-3.78,-3.7
2.640e-03,-4.34,-4.42
2.653e-03,-4.06,-3.82
2.666e-03,-3.98,-4.7
2.678e-03,-4.38,-3.78
2.691e-03,-4.42,-4.7
2.704e-03,-4.38,-4.22
2.717e-03,-4.02,-4.34
2.730e-03,-4.18,-3.86
2.742e-03,-4.58,-4.66
2.755e-03,-4.18,-3.86
2.768e-03,-4.26,-4.42
2.781e-03,-4.02,-3.94
2.794e-03,-4.06,-4.58
2.806e-03,-3.98,-3.78
2.819e-03,-4.18,-4.26
2.832e-03,-3.9,-3.82
2.845e-03,-4.1,-4.42
2.858e-03,-4.3,-4.02
2.870e-03,-4.18,-4.34
2.883e-03,-4.1,-3.9
2.896e-03,-4.14,-4.66
2.909e-03,-4.22,-3.9
2.922e-03,-3.82,-4.42
2.934e-03,-4.3,-3.74
2.947e-03,-4.18,-4.26
2.960e-03,-4.1,-3.9
2.973e-03,-4.22,-4.54
2.986e-03,-4.02,-3.82
2.998e-03,-3.9,-4.5
3.011e-03,-3.98,-3.82
3.024e-03,-4.38,-4.54
3.037e-03,-4.1,-4.02
3.050e-03,-4.78,-4.86
3.062e-03,-4.22,-4.02
3.075e-03,-4.62,-4.74
3.088e-03,-4.1,-3.98
3.101e-03,-3.62,-4.46
3.114e-03,-4.14,-3.5
3.126e-03,-3.74,-4.22
3.139e-03,-4.06,-3.46
3.152e-03,-4.02,-4.18
3.165e-03,-3.9,-3.66
3.178e-03,-4.1,-4.54
3.190e-03,-4.18,-3.94
3.203e-03,-4.14,-4.66
3.216e-03,-4.58,-3.82
3.229e-03,-4.02,-4.42
3.242e-03,-4.3,-3.86
3.254e-03,-3.94,-4.3
3.267e-03,-4.02,-3.82
3.280e-03,-4.3,-4.38
3.293e-03,-4.26,-3.9
3.306e-03,-4.18,-4.3
3.318e-03,-4.1,-3.74
3.331e-03,-4.3,-4.54
3.344e-03,-4.46,-3.94
3.357e-03,-4.1,-4.42
3.370e-03,-4.06,-3.78
3.382e-03,-3.62,-4.58
3.395e-03,-4.5,-3.54
3.408e-03,-4.5,-4.62
3.421e-03,-4.26,-4.06
3.434e-03,-4.18,-4.3
3.446e-03,-3.98,-3.82
3.459e-03,-3.9,-4.3
3.472e-03,-4.02,-3.62
3.485e-03,-3.98,-4.5
3.498e-03,-3.94,-3.74
3.510e-03,-3.98,-4.58
3.523e-03,-4.22,-3.78
3.536e-03,-4.3,-4.7
3.549e-03,-4.42,-3.9
3.562e-03,-4.14,-4.5
3.574e-03,-4.22,-3.9
3.587e-03,-4.1,-4.46
3.600e-03,-3.94,-3.78
3.613e-03,-4.14,-4.22
3.626e-03,-3.98,-3.74
3.638e-03,-4.26,-4.58
3.651e-03,-4.22,-4.02
3.664e-03,-3.86,-4.58
3.677e-03,-4.46,-3.7
3.690e-03,-4.06,-4.14
3.702e-03,-4.06,-3.74
3.715e-03,-4.26,-4.5
3.728e-03,-3.62,-3.54
3.741e-03,-4.22,-4.3
3.754e-03,-4.02,-3.78
3.766e-03,-4.26,-4.5
3.779e-03,-4.14,-4.06
3.792e-03,-3.98,-4.5
3.805e-03,-4.06,-3.58
3.818e-03,-4.18,-4.62
3.830e-03,-3.82,-3.7
3.843e-03,-4.22,-4.78
3.856e-03,-4.5,-3.9
3.869e-03,-4.3,-4.62
3.882e-03,-4.18,-4.02
3.894e-03,-4.02,-4.66
3.907e-03,-4.42,-3.82
3.920e-03,-4.22,-4.5
3.933e-03,-3.98,-3.74
3.946e-03,-3.98,-4.22
3.958e-03,-3.86,-3.66
3.971e-03,-3.98,-4.38
3.984e-03,-4.02,-3.66
3.997e-03,-4.22,-4.7
4.010e-03,-4.18,-3.74
4.022e-03,-3.86,-4.62
4.035e-03,-4.54,-3.74
4.048e-03,-4.5,-4.74
4.061e-03,-4.18,-4.06
4.074e-03,-4.34,-4.86
4.086e-03,-3.9,-3.82
4.099e-03,-3.98,-4.58
4.112e-03,-4.42,-3.82
4.125e-03,-4.06,-4.42
4.138e-03,-4.14,-3.74
4.150e-03,-4.18,-4.42
4.163e-03,-4.34,-3.9
4.176e-03,-4.18,-4.5
4.189e-03,-4.22,-3.86
4.202e-03,-4.42,-4.62
4.214e-03,-4.34,-4.1
4.227e-03,-4.42,-4.7
4.240e-03,-4.18,-3.9
4.253e-03,-3.86,-4.46
4.266e-03,-4.26,-3.58
4.278e-03,-3.98,-4.42
4.291e-03,-3.98,-3.58
4.304e-03,-4.1,-4.42
4.317e-03,-4.14,-3.9
4.330e-03,-4.26,-4.42
4.342e-03,-3.98,-3.86
4.355e-03,-4.58,-4.7
4.368e-03,-4.34,-4.18
4.381e-03,-4.3,-4.62
4.394e-03,-4.34,-3.86
4.406e-03,-3.98,-4.42
4.419e-03,-4.1,-3.78
4.432e-03,-4.22,-4.3
4.445e-03,-3.7,-3.38
4.458e-03,-4.14,-4.34
4.470e-03,-4.02,-3.78
4.483e-03,-4.22,-4.54
4.496e-03,-4.14,-3.98
4.509e-03,-4.3,-4.46
4.522e-03,-3.9,-3.74
4.534e-03,-4.42,-4.5
4.547e-03,-4.22,-3.86
4.560e-03,-4.46,-4.66
4.573e-03,-4.34,-4.14
4.586e-03,-3.98,-4.58
4.598e-03,-4.3,-3.7
4.611e-03,-4.34,-4.62
4.624e-03,-4.18,-3.98
4.637e-03,-4.22,-4.34
4.650e-03,-4.02,-3.7
4.662e-03,-4.58,-4.66
4.675e-03,-4.3,-4.06
4.688e-03,-4.66,-4.78
4.701e-03,-4.34,-3.74
4.714e-03,-4.22,-4.78
4.726e-03,-4.5,-4.02
4.739e-03,-4.18,-4.3
4.752e-03,-3.9,-3.82
4.765e-03,-4.06,-4.3
4.778e-03,-4.1,-3.78
4.790e-03,-3.86,-4.74
4.803e-03,-4.34,-3.7
4.816e-03,-4.1,-4.74
4.829e-03,-4.1,-3.74
4.842e-03,-4.1,-4.82
4.854e-03,-4.62,-3.74
4.867e-03,-4.42,-4.86
4.880e-03,-4.38,-4.14
4.893e-03,-4.26,-4.38
4.906e-03,-4.22,-3.94
4.918e-03,-4.46,-4.54
4.931e-03,-3.98,-3.9
4.944e-03,-4.14,-4.22
4.957e-03,-3.9,-3.7
4.970e-03,-4.18,-4.42
4.982e-03,-3.94,-3.7
4.995e-03,-4.38,-4.54
5.008e-03,-4.26,-3.9
5.021e-03,-4.02,-4.3
5.034e-03,-4.22,-3.9
5.046e-03,-4.38,-4.62
5.059e-03,-4.46,-4.1
5.072e-03,-4.1,-4.3
5.085e-03,-4.18,-3.86
5.098e-03,-3.7,-4.22
5.110e-03,-4.02,-3.5
5.123e-03,-3.78,-4.34
5.136e-03,-3.94,-3.58
5.149e-03,-3.74,-4.5
5.162e-03,-4.14,-3.62
5.174e-03,-4.5,-4.58
5.187e-03,-4.1,-3.98
5.200e-03,-4.06,-4.38
5.213e-03,-4.3,-3.86
5.226e-03,-4.18,-4.46
5.238e-03,-4.38,-3.98
5.251e-03,-4.14,-4.3
5.264e-03,-4.06,-3.82
5.277e-03,-3.82,-4.5
5.290e-03,-4.42,-3.74
5.302e-03,-3.98,-4.34
5.315e-03,-4.1,-3.78
5.328e-03,-3.86,-4.54
5.341e-03,-4.34,-3.66
5.354e-03,-3.98,-4.5
5.366e-03,-4.1,-3.7
5.379e-03,-4.5,-4.62
5.392e-03,-4.14,-3.74
5.405e-03,-3.78,-4.58
5.418e-03,-4.46,-3.66
5.430e-03,-3.9,-4.34
5.443e-03,-3.98,-3.5
5.456e-03,-4.38,-4.54
5.469e-03,-3.94,-3.7
5.482e-03,-4.14,-4.38
5.494e-03,-4.02,-3.78
5.507e-03,-3.94,-4.46
5.520e-03,-4.22,-3.7
5.533e-03,-4.26,-4.62
5.546e-03,-4.5,-4.1
5.558e-03,-3.78,-4.62
5.571e-03,-4.54,-3.62
5.584e-03,-3.74,-4.3
5.597e-03,-3.94,-3.58
5.610e-03,-4.42,-4.54
5.622e-03,-4.42,-4.22
5.635e-03,-4.14,-4.58
5.648e-03,-4.18,-3.82
5.661e-03,-3.98,-4.62
5.674e-03,-4.5,-3.66
5.686e-03,-4.46,-4.74
5.699e-03,-4.38,-4.26
5.712e-03,-4.14,-4.46
5.725e-03,-3.82,-3.66
5.738e-03,-4.18,-4.38
5.750e-03,-3.94,-3.82
5.763e-03,-4.06,-4.22
5.776e-03,-4.06,-3.82
5.789e-03,-4.3,-4.54
5.802e-03,-4.46,-3.94
5.814e-03,-4.26,-4.58
5.827e-03,-4.46,-4.14
5.840e-03,-4.22,-4.58
5.853e-03,-4.02,-3.94
5.866e-03,-4.3,-4.7
5.878e-03,-3.98,-3.5
5.891e-03,-4.14,-4.3
5.904e-03,-3.98,-3.42
5.917e-03,-4.34,-4.42
5.930e-03,-4.14,-4.02
5.942e-03,-4.26,-4.42
5.955e-03,-4.02,-3.9
5.968e-03,-4.18,-4.78
5.981e-03,-4.18,-3.7
5.994e-03,-4.06,-4.46
6.006e-03,-4.22,-3.74
6.019e-03,-4.34,-4.5
6.032e-03,-4.14,-4.02
6.045e-03,-3.86,-4.54
6.058e-03,-4.34,-3.7
6.070e-03,-3.98,-4.3
6.083e-03,-4.18,-3.82
6.096e-03,-3.86,-4.42
6.109e-03,-4.34,-3.78
6.122e-03,-4.18,-4.54
6.134e-03,-3.62,-3.5
6.147e-03,-4.42,-4.58
6.160e-03,-4.14,-3.82
6.173e-03,-4.42,-4.5
6.186e-03,-4.1,-4.02
6.198e-03,-4.46,-4.62
6.211e-03,-4.46,-4.18
6.224e-03,-4.14,-4.3
6.237e-03,-3.86,-3.62
6.250e-03,-4.02,-4.38
6.262e-03,-4.3,-3.7
6.275e-03,-4.3,-4.5
6.288e-03,-3.94,-3.86
6.301e-03,-4.06,-4.14
6.314e-03,-4.06,-3.82
6.326e-03,-4.22,-4.38
6.339e-03,-4.22,-4.02
6.352e-03,-4.38,-4.82
6.365e-03,-4.34,-3.94
6.378e-03,-4.14,-4.34
6.390e-03,-4.1,-3.78
6.403e-03,-4.3,-4.54
6.416e-03,-4.26,-3.9
6.429e-03,-3.86,-4.46
6.442e-03,-4.26,-3.66
6.454e-03,-3.74,-4.46
6.467e-03,-4.3,-3.54
6.480e-03,-4.06,-4.5
6.493e-03,-4.38,-3.94
6.506e-03,-4.34,-4.86
6.518e-03,-4.62,-4.1
6.531e-03,-3.78,-4.62
6.544e-03,-4.14,-3.7
6.557e-03,-4.1,-4.3
6.570e-03,-3.9,-3.86
6.582e-03,-4.06,-4.22
6.595e-03,-3.9,-3.82
6.608e-03,-4.02,-4.66
6.621e-03,-4.54,-3.86
6.634e-03,-3.86,-4.42
6.646e-03,-4.34,-3.78
6.659e-03,-3.98,-4.7
6.672e-03,-4.42,-3.86
6.685e-03,-4.06,-4.38
6.698e-03,-4.02,-3.94
6.710e-03,-4.06,-4.34
6.723e-03,-3.9,-3.78
6.736e-03,-4.34,-4.42
6.749e-03,-4.02,-3.86
6.762e-03,-4.06,-4.46
6.774e-03,-4.34,-3.94
6.787e-03,-4.22,-4.42
6.800e-03,-4.22,-3.74
6.813e-03,-4.06,-4.34
6.826e-03,-4.14,-3.9
6.838e-03,-4.46,-4.54
6.851e-03,-4.14,-3.9
6.864e-03,-4.58,-4.66
6.877e-03,-3.74,-3.66
6.890e-03,-4.26,-4.5
6.902e-03,-3.5,-3.38
6.915e-03,-4.02,-4.26
6.928e-03,-3.7,-3.5
6.941e-03,-4.18,-4.38
6.954e-03,-4.1,-3.94
6.966e-03,-4.42,-4.54
6.979e-03,-4.42,-4.02
6.992e-03,-4.14,-4.62
7.005e-03,-4.38,-4.06
7.018e-03,-4.42,-4.82
7.030e-03,-4.1,-3.66
7.043e-03,-4.3,-4.46
7.056e-03,-4.02,-3.54
7.069e-03,-3.98,-4.22
7.082e-03,-3.9,-3.78
7.094e-03,-3.74,-4.38
7.107e-03,-4.18,-3.62
7.120e-03,-4.22,-4.46
7.133e-03,-3.9,-3.82
7.146e-03,-4.38,-4.78
7.158e-03,-4.54,-4.14
7.171e-03,-4.7,-4.78
7.184e-03,-4.22,-4.1
7.197e-03,-4.5,-4.7
7.210e-03,-4.22,-3.98
7.222e-03,-4.34,-4.46
7.235e-03,-4.26,-3.98
7.248e-03,-4.14,-4.62
7.261e-03,-4.5,-3.94
7.274e-03,-4.34,-4.42
7.286e-03,-4.06,-3.98
7.299e-03,-4.3,-4.58
7.312e-03,-4.1,-4.02
7.325e-03,-4.38,-4.46
7.338e-03,-4.3,-3.98
7.350e-03,-4.78,-5.02
7.363e-03,-4.1,-3.98
7.376e-03,-4.38,-4.46
7.389e-03,-4.1,-3.98
7.402e-03,-4.22,-4.3
7.414e-03,-4.06,-3.86
7.427e-03,-4.1,-4.94
7.440e-03,-4.7,-3.86
7.453e-03,-3.94,-4.66
7.466e-03,-4.34,-3.82
7.478e-03,-3.94,-4.58
7.491e-03,-4.38,-3.86
7.504e-03,-4.1,-4.54
7.517e-03,-4.06,-3.94
7.530e-03,-4.02,-4.38
7.542e-03,-4.22,-3.82
7.555e-03,-4.18,-4.7
7.568e-03,-4.46,-4.06
7.581e-03,-4.42,-4.5
7.594e-03,-3.82,-3.78
7.606e-03,-4.22,-4.5
7.619e-03,-3.54,-3.46
7.632e-03,-4.22,-4.38
7.645e-03,-4.18,-4.06
7.658e-03,-4.14,-4.42
7.670e-03,-4.14,-3.9
7.683e-03,-4.62,-4.7
7.696e-03,-4.06,-3.94
7.709e-03,-4.18,-4.58
7.722e-03,-4.42,-3.98
7.734e-03,-4.1,-4.34
7.747e-03,-3.94,-3.86
7.760e-03,-4.5,-4.62
7.773e-03,-4.1,-3.98
7.786e-03,-4.3,-4.58
7.798e-03,-4.5,-4.14
7.811e-03,-4.42,-4.7
7.824e-03,-4.46,-4.14
7.837e-03,-4.34,-4.54
7.850e-03,-4.22,-3.9
7.862e-03,-4.02,-4.5
7.875e-03,-4.3,-3.82
7.888e-03,-3.9,-4.58
7.901e-03,-4.14,-3.66
7.914e-03,-4.06,-4.34
7.926e-03,-3.86,-3.5
7.939e-03,-4.02,-4.58
7.952e-03,-3.98,-3.5
7.965e-03,-4.02,-4.42
7.978e-03,-4.22,-3.74
7.990e-03,-4.06,-4.62
8.003e-03,-4.38,-3.74
8.016e-03,-4.34,-4.74
8.029e-03,-4.02,-3.86
8.042e-03,-4.58,-4.74
8.054e-03,-3.98,-3.9
8.067e-03,-3.98,-4.18
8.080e-03,-4.02,-3.78
8.093e-03,-4.02,-4.62
8.106e-03,-4.22,-3.74
8.118e-03,-3.82,-4.58
8.131e-03,-3.74,-3.62
8.144e-03,-4.22,-4.46
8.157e-03,-4.14,-3.82
8.170e-03,-4.14,-4.58
8.182e-03,-4.38,-4.02
8.195e-03,-4.14,-4.7
8.208e-03,-4.62,-4.02
8.221e-03,-4.3,-4.5
8.234e-03,-4.1,-3.94
8.246e-03,-4.02,-4.38
8.259e-03,-4.1,-3.86
8.272e-03,-3.98,-4.3
8.285e-03,-4.18,-3.9
8.298e-03,-4.3,-4.38
8.310e-03,-4.26,-3.9
8.323e-03,-4.26,-4.46
8.336e-03,-4.14,-3.94
8.349e-03,-4.1,-4.38
8.362e-03,-4.14,-3.86
8.374e-03,-3.58,-4.26
8.387e-03,-4.1,-3.5
8.400e-03,-4.38,-4.54
8.413e-03,-4.26,-3.66
8.426e-03,-3.9,-4.46
8.438e-03,-4.22,-3.82
8.451e-03,-4.46,-4.58
8.464e-03,-4.3,-3.94
8.477e-03,-4.38,-4.46
8.490e-03,-4.18,-3.94
8.502e-03,-4.5,-4.58
8.515e-03,-4.18,-3.98
8.528e-03,-4.42,-4.5
8.541e-03,-4.02,-3.86
8.554e-03,-3.9,-4.58
8.566e-03,-3.78,-3.5
8.579e-03,-4.46,-4.54
8.592e-03,-4.1,-3.86
8.605e-03,-4.02,-4.38
8.618e-03,-3.5,-3.42
8.630e-03,-4.38,-4.54
8.643e-03,-4.46,-3.82
8.656e-03,-4.58,-4.66
8.669e-03,-4.1,-4.02
8.682e-03,-4.42,-4.7
8.694e-03,-3.94,-3.58
8.707e-03,-3.66,-4.18
8.720e-03,-3.86,-3.5
8.733e-03,-4.14,-4.5
8.746e-03,-4.46,-3.9
8.758e-03,-3.98,-4.38
8.771e-03,-3.9,-3.82
8.784e-03,-4.3,-4.42
8.797e-03,-4.22,-3.98
8.810e-03,-3.94,-4.42
8.822e-03,-4.26,-3.74
8.835e-03,-4.22,-4.54
8.848e-03,-4.3,-3.86
8.861e-03,-3.74,-4.7
8.874e-03,-4.5,-3.62
8.886e-03,-4.18,-4.5
8.899e-03,-4.38,-4.1
8.912e-03,-3.82,-4.7
8.925e-03,-4.62,-3.7
8.938e-03,-4.62,-4.78
8.950e-03,-4.38,-4.3
8.963e-03,-3.94,-4.62
8.976e-03,-4.34,-3.74
8.989e-03,-4.34,-4.66
9.002e-03,-4.18,-3.78
9.014e-03,-4.3,-4.46
9.027e-03,-4.02,-3.78
9.040e-03,-4.02,-4.14
9.053e-03,-3.98,-3.78
9.066e-03,-4.06,-4.46
9.078e-03,-4.02,-3.78
9.091e-03,-4.18,-4.66
9.104e-03,-4.38,-3.78
9.117e-03,-4.02,-4.42
9.130e-03,-3.74,-3.62
9.142e-03,-4.54,-4.66
9.155e-03,-4.3,-4.02
9.168e-03,-4.1,-4.22
9.181e-03,-4.06,-3.86
9.194e-03,-4.1,-4.58
9.206e-03,-4.5,-3.78
9.219e-03,-4.26,-4.42
9.232e-03,-4.14,-3.94
9.245e-03,-3.94,-4.74
9.258e-03,-4.46,-3.86
9.270e-03,-4.38,-4.5
9.283e-03,-4.14,-3.98
9.296e-03,-4.06,-4.26
9.309e-03,-4.14,-3.94
9.322e-03,-4.06,-4.5
9.334e-03,-4.14,-3.94
9.347e-03,-3.86,-4.46
9.360e-03,-4.06,-3.74
9.373e-03,-4.06,-4.3
9.386e-03,-4.06,-3.82
9.398e-03,-4.34,-4.7
9.411e-03,-4.3,-3.98
9.424e-03,-3.78,-4.3
9.437e-03,-4.18,-3.66
9.450e-03,-4.02,-4.58
9.462e-03,-4.5,-3.78
9.475e-03,-4.82,-4.94
9.488e-03,-4.06,-3.82
9.501e-03,-4.26,-4.7
9.514e-03,-4.58,-3.94
9.526e-03,-4.06,-4.34
9.539e-03,-4.06,-3.82
9.552e-03,-3.98,-4.14
9.565e-03,-3.86,-3.66
9.578e-03,-4.1,-4.26
9.590e-03,-3.98,-3.74
9.603e-03,-4.1,-4.58
9.616e-03,-4.46,-3.86
9.629e-03,-4.42,-4.58
9.642e-03,-4.46,-4.1
9.654e-03,-4.22,-4.62
9.667e-03,-4.42,-3.98
9.680e-03,-3.82,-4.78
9.693e-03,-4.34,-3.7
9.706e-03,-4.34,-4.46
9.718e-03,-4.14,-4.02
9.731e-03,-3.94,-4.26
9.744e-03,-4.06,-3.82
9.757e-03,-4.18,-4.42
9.770e-03,-4.34,-3.86
9.782e-03,-4.1,-4.46
9.795e-03,-4.26,-3.98
9.808e-03,-4.22,-4.62
9.821e-03,-4.42,-3.94
9.834e-03,-4.3,-4.58
9.846e-03,-4.42,-4.1
9.859e-03,-4.02,-4.38
9.872e-03,-4.22,-3.86
9.885e-03,-4.02,-4.18
9.898e-03,-3.9,-3.54
9.910e-03,-3.74,-4.18
9.923e-03,-3.9,-3.26
9.936e-03,-4.14,-4.42
9.949e-03,-4.1,-3.86
9.962e-03,-4.18,-4.3
9.974e-03,-4.14,-3.82
9.987e-03,-4.42,-4.54
1.000e-02,-4.02,-3.9
1.001e-02,-4.18,-4.42
1.003e-02,-4.34,-3.94
1.004e-02,-4.18,-4.5
1.005e-02,-3.94,-3.82
1.006e-02,-4.1,-4.54
1.008e-02,-4.26,-3.74
1.009e-02,-3.9,-4.86
1.010e-02,-4.78,-3.78
1.012e-02,-3.94,-4.58
1.013e-02,-3.98,-3.86
1.014e-02,-4.3,-4.54
1.015e-02,-4.38,-4.06
1.017e-02,-4.22,-4.42
1.018e-02,-3.82,-3.7
1.019e-02,-4.18,-4.42
1.020e-02,-4.34,-3.94
1.022e-02,-3.9,-4.3
1.023e-02,-3.94,-3.7
1.024e-02,-4.22,-4.38
1.026e-02,-4.26,-3.78
1.027e-02,-4.1,-4.7
1.028e-02,-4.26,-3.7
1.029e-02,-4.14,-4.7
1.031e-02,-4.38,-3.94
1.032e-02,-4.54,-4.62
1.033e-02,-3.9,-3.82
1.035e-02,-4.1,-4.26
1.036e-02,-4.1,-3.94
1.037e-02,-4.3,-4.62
1.038e-02,-4.38,-4.02
1.040e-02,-4.1,-4.66
1.041e-02,-4.26,-3.82
1.042e-02,-4.18,-4.54
1.044e-02,-4.46,-4.06
1.045e-02,-4.1,-4.58
1.046e-02,-4.5,-3.86
1.047e-02,-4.22,-4.86
1.049e-02,-4.58,-4.14
1.050e-02,-4.34,-4.82
1.051e-02,-4.46,-4.02
1.052e-02,-4.06,-4.5
1.054e-02,-3.94,-3.82
1.055e-02,-4.14,-4.3
1.056e-02,-3.82,-3.62
1.058e-02,-4.06,-4.5
1.059e-02,-4.14,-3.66
1.060e-02,-4.26,-4.34
1.061e-02,-4.02,-3.62
1.063e-02,-4.14,-4.62
1.064e-02,-4.54,-3.94
1.065e-02,-4.34,-4.66
1.067e-02,-4.38,-4.14
1.068e-02,-4.1,-4.62
1.069e-02,-4.14,-4.06
1.070e-02,-4.18,-4.58
1.072e-02,-4.22,-4.1
1.073e-02,-3.98,-4.5
1.074e-02,-4.3,-3.78
1.076e-02,-3.74,-4.46
1.077e-02,-3.98,-3.66
1.078e-02,-4.5,-4.7
1.079e-02,-4.5,-4.06
1.081e-02,-4.26,-4.7
1.082e-02,-4.3,-4.06
1.083e-02,-4.26,-4.5
1.084e-02,-4.26,-4.02
1.086e-02,-4.02,-4.38
1.087e-02,-4.1,-3.9
1.088e-02,-4.22,-4.5
1.090e-02,-4.18,-3.98
1.091e-02,-4.1,-4.54
1.092e-02,-4.02,-3.86
1.093e-02,-3.98,-4.7
1.095e-02,-4.14,-3.66
1.096e-02,-4.18,-4.74
1.097e-02,-4.1,-4.06
1.099e-02,-4.06,-4.58
1.100e-02,-3.9,-3.74
1.101e-02,-4.3,-4.46
1.102e-02,-3.9,-3.82
1.104e-02,-4.14,-4.46
1.105e-02,-4.06,-3.74
1.106e-02,-3.9,-4.42
1.108e-02,-4.3,-3.62
1.109e-02,-4.18,-4.62
1.110e-02,-4.34,-3.74
1.111e-02,-3.82,-4.42
1.113e-02,-4.14,-3.7
1.114e-02,-4.34,-4.54
1.115e-02,-4.02,-3.94
1.116e-02,-4.54,-4.66
1.118e-02,-3.9,-3.78
1.119e-02,-4.3,-4.42
1.120e-02,-4.22,-3.9
1.122e-02,-4.02,-4.34
1.123e-02,-3.86,-3.7
1.124e-02,-4.14,-4.54
1.125e-02,-4.02,-3.66
1.127e-02,-4.1,-4.3
1.128e-02,-3.98,-3.78
1.129e-02,-3.66,-4.46
1.131e-02,-4.34,-3.54
1.132e-02,-4.58,-4.7
1.133e-02,-4.02,-3.94
1.134e-02,-4.1,-4.34
1.136e-02,-3.9,-3.82
1.137e-02,-4.26,-4.38
1.138e-02,-3.94,-3.82
1.140e-02,-4.18,-4.34
1.141e-02,-4.14,-4.02
1.142e-02,-4.18,-4.46
1.143e-02,-4.34,-4.1
1.145e-02,-4.38,-4.62
1.146e-02,-4.3,-4.22
1.147e-02,-4.38,-4.7
1.148e-02,-4.18,-4.02
1.150e-02,-4.1,-4.46
1.151e-02,-4.22,-3.9
1.152e-02,-3.7,-4.34
1.154e-02,-4.18,-3.5
1.155e-02,-4.02,-4.42
1.156e-02,-4.02,-3.7
1.157e-02,-4.18,-4.38
1.159e-02,-3.9,-3.82
1.160e-02,-4.06,-4.46
1.161e-02,-4.3,-3.86
1.163e-02,-4.22,-4.42
1.164e-02,-4.02,-3.78
1.165e-02,-4.5,-4.58
1.166e-02,-4.26,-4.06
1.168e-02,-3.94,-4.66
1.169e-02,-4.1,-3.78
1.170e-02,-3.9,-4.5
1.172e-02,-4.02,-3.82
1.173e-02,-4.3,-4.46
1.174e-02,-4.02,-3.9
1.175e-02,-4.3,-4.38
1.177e-02,-3.94,-3.86
1.178e-02,-4.3,-4.38
1.179e-02,-4.22,-3.94
1.180e-02,-4.14,-4.42
1.182e-02,-4.02,-3.94
1.183e-02,-4.38,-4.5
1.184e-02,-4.3,-4.02
1.186e-02,-4.18,-4.54
1.187e-02,-4.18,-4.06
1.188e-02,-4.18,-4.58
1.189e-02,-4.1,-3.94
1.191e-02,-4.18,-4.38
1.192e-02,-4.22,-3.94
1.193e-02,-4.5,-4.7
1.195e-02,-4.46,-4.14
1.196e-02,-3.98,-4.58
1.197e-02,-4.42,-3.9
1.198e-02,-4.5,-4.7
1.200e-02,-4.18,-3.86
1.201e-02,-4.22,-4.3
1.202e-02,-3.98,-3.78
1.204e-02,-3.98,-4.3
1.205e-02,-4.18,-3.78
1.206e-02,-3.9,-4.22
1.207e-02,-3.94,-3.82
1.209e-02,-4.06,-4.62
1.210e-02,-4.46,-3.9
1.211e-02,-4.42,-4.5
1.212e-02,-4.06,-3.94
1.214e-02,-4.58,-4.66
1.215e-02,-4.18,-3.94
1.216e-02,-4.38,-4.5
1.218e-02,-4.1,-3.98
1.219e-02,-4.06,-4.34
1.220e-02,-4.06,-3.58
1.221e-02,-4.06,-4.3
1.223e-02,-4.1,-3.82
1.224e-02,-4.26,-4.34
1.225e-02,-3.78,-3.62
1.227e-02,-3.98,-4.66
1.228e-02,-4.18,-3.74
1.229e-02,-4.1,-4.5
1.230e-02,-4.42,-3.94
1.232e-02,-4.22,-4.5
1.233e-02,-3.9,-3.86
1.234e-02,-4.1,-4.42
1.236e-02,-3.94,-3.82
1.237e-02,-3.98,-4.1
1.238e-02,-3.74,-3.66
1.239e-02,-4.42,-4.5
1.241e-02,-3.9,-3.78
1.242e-02,-4.3,-4.54
1.243e-02,-4.34,-3.9
1.244e-02,-4.1,-4.9
1.246e-02,-4.78,-3.94
1.247e-02,-4.42,-4.5
1.248e-02,-4.1,-4.02
1.250e-02,-4.18,-4.42
1.251e-02,-4.18,-3.98
1.252e-02,-3.78,-4.26
1.253e-02,-3.94,-3.7
1.255e-02,-3.82,-4.34
1.256e-02,-3.98,-3.66
1.257e-02,-3.7,-4.38
1.259e-02,-4.3,-3.58
1.260e-02,-4.14,-4.38
1.261e-02,-4.18,-4.06
1.262e-02,-4.26,-4.58
1.264e-02,-4.14,-3.94
1.265e-02,-4.18,-4.42
1.266e-02,-4.02,-3.7
1.268e-02,-3.78,-4.02
1.269e-02,-3.78,-3.58
1.270e-02,-3.98,-4.38
1.271e-02,-3.98,-3.7
1.273e-02,-4.42,-4.62
1.274e-02,-4.34,-3.9
1.275e-02,-4.1,-4.7
1.276e-02,-4.34,-3.86
1.278e-02,-4.1,-4.78
1.279e-02,-4.7,-3.98
1.280e-02,-4.06,-4.54
1.282e-02,-4.3,-3.98
1.283e-02,-4.26,-4.62
1.284e-02,-4.34,-4.02
1.285e-02,-3.7,-4.26
1.287e-02,-4.02,-3.54
1.288e-02,-3.98,-4.38
1.289e-02,-3.98,-3.7
1.291e-02,-3.86,-4.66
1.292e-02,-4.3,-3.74
1.293e-02,-4.1,-4.46
1.294e-02,-4.34,-4.02
1.296e-02,-4.1,-4.54
1.297e-02,-4.26,-3.98
1.298e-02,-4.54,-4.66
1.300e-02,-4.02,-3.86
1.301e-02,-4.02,-4.34
1.302e-02,-3.78,-3.66
1.303e-02,-3.86,-4.22
1.305e-02,-3.98,-3.46
1.306e-02,-4.42,-4.5
1.307e-02,-3.54,-3.5
1.308e-02,-4.74,-4.82
1.310e-02,-3.9,-3.74
1.311e-02,-3.98,-4.62
1.312e-02,-4.46,-3.86
1.314e-02,-3.74,-4.58
1.315e-02,-4.18,-3.66
1.316e-02,-3.98,-4.58
1.317e-02,-4.46,-3.66
1.319e-02,-4.22,-4.3
1.320e-02,-3.94,-3.9
1.321e-02,-3.94,-4.18
1.323e-02,-4.02,-3.86
1.324e-02,-4.06,-4.38
1.325e-02,-4.14,-3.86
1.326e-02,-4.66,-4.74
1.328e-02,-4.26,-4.1
1.329e-02,-4.3,-4.54
1.330e-02,-4.3,-4.02
1.332e-02,-4.06,-4.42
1.333e-02,-4.18,-3.9
1.334e-02,-4.34,-4.46
1.335e-02,-4.14,-3.78
1.337e-02,-4.02,-4.38
1.338e-02,-3.9,-3.74
1.339e-02,-4.26,-4.46
1.340e-02,-4.3,-3.94
1.342e-02,-4.02,-4.5
1.343e-02,-4.26,-3.94
1.344e-02,-4.26,-4.58
1.346e-02,-3.98,-3.82
1.347e-02,-4.46,-4.54
1.348e-02,-4.26,-3.86
1.349e-02,-4.1,-4.34
1.351e-02,-4.14,-4.02
1.352e-02,-4.1,-4.46
1.353e-02,-4.14,-3.86
1.355e-02,-4.1,-4.42
1.356e-02,-4.26,-3.74
1.357e-02,-4.06,-4.38
1.358e-02,-4.22,-3.78
1.360e-02,-4.34,-4.5
1.361e-02,-4.42,-4.06
1.362e-02,-4.22,-4.46
1.364e-02,-3.86,-3.7
1.365e-02,-4.06,-4.18
1.366e-02,-3.7,-3.54
1.367e-02,-4.18,-4.3
1.369e-02,-3.86,-3.62
1.370e-02,-4.26,-4.38
1.371e-02,-3.9,-3.82
1.372e-02,-4.14,-4.42
1.374e-02,-4.3,-3.78
1.375e-02,-3.9,-4.42
1.376e-02,-4.34,-3.74
1.378e-02,-3.94,-4.38
1.379e-02,-4.3,-3.82
1.380e-02,-4.26,-4.54
1.381e-02,-4.34,-3.86
1.383e-02,-4.14,-4.54
1.384e-02,-4.34,-3.9
1.385e-02,-3.98,-4.14
1.387e-02,-3.98,-3.82
1.388e-02,-4.14,-4.22
1.389e-02,-3.7,-3.62
1.390e-02,-4.66,-4.82
1.392e-02,-4.3,-3.9
1.393e-02,-4.3,-4.74
1.394e-02,-4.58,-4.06
1.396e-02,-4.1,-4.66
1.397e-02,-4.54,-4.06
1.398e-02,-4.18,-4.38
1.399e-02,-4.22,-4.02
1.401e-02,-3.86,-4.34
1.402e-02,-3.86,-3.38
1.403e-02,-4.18,-4.42
1.404e-02,-4.34,-3.74
1.406e-02,-4.26,-4.5
1.407e-02,-3.86,-3.78
1.408e-02,-4.3,-4.5
1.410e-02,-4.18,-3.74
1.411e-02,-4.3,-4.46
1.412e-02,-4.26,-3.94
1.413e-02,-3.86,-4.02
1.415e-02,-3.7,-3.62
1.416e-02,-4.34,-4.5
1.417e-02,-4.22,-3.74
1.419e-02,-3.94,-4.46
1.420e-02,-4.22,-3.82
1.421e-02,-3.98,-4.34
1.422e-02,-3.86,-3.78
1.424e-02,-4.3,-4.58
1.425e-02,-4.3,-3.86
1.426e-02,-4.46,-4.66
1.428e-02,-4.34,-3.98
1.429e-02,-4.58,-4.74
1.430e-02,-4.06,-3.98
1.431e-02,-4.34,-4.74
1.433e-02,-4.26,-3.9
1.434e-02,-4.06,-4.18
1.435e-02,-3.7,-3.5
1.436e-02,-4.1,-4.3
1.438e-02,-3.9,-3.82
1.439e-02,-4.02,-4.42
1.440e-02,-4.3,-3.86
1.442e-02,-4.5,-4.7
1.443e-02,-4.3,-4.18
1.444e-02,-4.3,-4.58
1.445e-02,-4.1,-3.98
1.447e-02,-4.22,-4.46
1.448e-02,-4.18,-4.06
1.449e-02,-4.42,-4.54
1.451e-02,-4.18,-4.06
1.452e-02,-4.02,-4.42
1.453e-02,-4.02,-3.58
1.454e-02,-4.02,-4.5
1.456e-02,-4.1,-3.62
1.457e-02,-4.46,-4.58
1.458e-02,-4.46,-4.18
1.460e-02,-3.82,-4.3
1.461e-02,-3.94,-3.66
1.462e-02,-4.1,-4.18
1.463e-02,-3.86,-3.7
1.465e-02,-4.34,-4.46
1.466e-02,-3.66,-3.58
1.467e-02,-4.14,-4.5
1.468e-02,-4.06,-3.82
1.470e-02,-3.9,-4.1
1.471e-02,-3.98,-3.7
1.472e-02,-4.34,-4.74
1.474e-02,-4.66,-3.94
1.475e-02,-4.1,-4.66
1.476e-02,-4.5,-3.98
1.477e-02,-3.9,-4.5
1.479e-02,-4.06,-3.74
1.480e-02,-4.1,-4.26
1.481e-02,-3.82,-3.7
1.483e-02,-4.3,-4.42
1.484e-02,-3.78,-3.7
1.485e-02,-4.02,-4.46
1.486e-02,-3.98,-3.86
1.488e-02,-4.02,-4.3
1.489e-02,-4.22,-3.82
1.490e-02,-4.06,-4.18
1.492e-02,-3.9,-3.78
1.493e-02,-4.46,-4.9
1.494e-02,-4.78,-3.94
1.495e-02,-3.94,-4.46
1.497e-02,-4.34,-3.86
1.498e-02,-4.26,-4.66
1.499e-02,-4.14,-3.62
1.500e-02,-3.9,-4.26
1.502e-02,-4.14,-3.54
1.503e-02,-4.18,-4.66
1.504e-02,-4.22,-3.94
1.506e-02,-3.98,-4.62
1.507e-02,-4.06,-3.82
1.508e-02,-4.06,-4.62
1.509e-02,-4.54,-3.74
1.511e-02,-4.1,-4.38
1.512e-02,-4.1,-3.94
1.513e-02,-4.26,-4.46
1.515e-02,-4.06,-3.94
1.516e-02,-4.34,-4.58
1.517e-02,-4.46,-4.1
1.518e-02,-4.3,-4.38
1.520e-02,-3.82,-3.78
1.521e-02,-4.14,-4.62
1.522e-02,-4.5,-4.06
1.524e-02,-4.14,-4.58
1.525e-02,-4.26,-3.86
1.526e-02,-4.14,-4.58
1.527e-02,-4.22,-4.06
1.529e-02,-4.34,-4.42
1.530e-02,-4.14,-3.74
1.531e-02,-4.22,-4.42
1.532e-02,-4.3,-3.86
1.534e-02,-4.14,-4.78
1.535e-02,-4.54,-3.78
1.536e-02,-4.06,-4.78
1.538e-02,-3.94,-3.9
1.539e-02,-4.34,-4.46
1.540e-02,-4.06,-3.94
1.541e-02,-4.14,-4.58
1.543e-02,-4.42,-3.62
1.544e-02,-4.26,-4.5
1.545e-02,-4.1,-3.86
1.547e-02,-4.54,-4.62
1.548e-02,-4.26,-4.14
1.549e-02,-4.46,-4.62
1.550e-02,-4.02,-3.94
1.552e-02,-3.9,-4.5
1.553e-02,-4.06,-3.7
1.554e-02,-4.06,-4.54
1.556e-02,-4.46,-3.86
1.557e-02,-4.02,-4.74
1.558e-02,-4.46,-3.74
1.559e-02,-4.14,-4.54
1.561e-02,-4.3,-4.02
1.562e-02,-4.22,-4.54
1.563e-02,-3.74,-3.66
1.564e-02,-4.06,-4.54
1.566e-02,-4.22,-3.42
1.567e-02,-4.5,-4.58
1.568e-02,-4.1,-3.86
1.570e-02,-4.18,-4.54
1.571e-02,-4.18,-3.98
1.572e-02,-4.1,-4.42
1.573e-02,-4.3,-3.94
1.575e-02,-4.06,-4.58
1.576e-02,-4.22,-3.94
1.577e-02,-4.26,-4.38
1.579e-02,-3.82,-3.74
1.580e-02,-3.9,-4.58
1.581e-02,-4.34,-3.82
1.582e-02,-3.94,-4.38
1.584e-02,-3.98,-3.82
1.585e-02,-3.94,-4.5
1.586e-02,-4.18,-3.78
1.588e-02,-3.94,-4.34
1.589e-02,-4.1,-3.82
1.590e-02,-4.26,-4.42
1.591e-02,-4.02,-3.9
1.593e-02,-4.46,-4.7
1.594e-02,-3.74,-3.66
1.595e-02,-4.38,-4.54
1.596e-02,-4.22,-3.9
1.598e-02,-3.62,-4.18
1.599e-02,-3.94,-3.5
1.600e-02,-3.9,-4.1
1.602e-02,-3.74,-3.58
1.603e-02,-4.06,-4.54
1.604e-02,-4.34,-3.62
1.605e-02,-4.22,-4.54
1.607e-02,-4.22,-3.94
1.608e-02,-4.38,-4.54
1.609e-02,-4.34,-4.06
1.611e-02,-3.94,-4.46
1.612e-02,-4.06,-3.86
1.613e-02,-3.9,-4.46
1.614e-02,-4.38,-3.66
1.616e-02,-4.34,-4.54
1.617e-02,-4.14,-3.98
1.618e-02,-3.98,-4.3
1.620e-02,-4.22,-3.9
1.621e-02,-3.98,-4.34
1.622e-02,-4.14,-3.86
1.623e-02,-4.18,-4.26
1.625e-02,-4.18,-3.66
1.626e-02,-3.9,-4.54
1.627e-02,-4.46,-3.66
1.628e-02,-3.98,-4.5
1.630e-02,-4.38,-3.66
1.631e-02,-3.98,-4.34
1.632e-02,-3.78,-3.7
1.634e-02,-4.18,-4.54
1.635e-02,-4.18,-4.06
1.636e-02,-4.06,-4.38
1.637e-02,-4.14,-3.9
1.639e-02,-4.42,-4.58
1.640e-02,-4.38,-3.82
1.641e-02,-4.26,-4.46
1.643e-02,-3.9,-3.82
1.644e-02,-4.1,-4.62
1.645e-02,-4.54,-3.82
1.646e-02,-4.18,-4.54
1.648e-02,-4.22,-3.94
1.649e-02,-4.14,-4.5
1.650e-02,-4.22,-3.86
1.652e-02,-4.38,-4.46
1.653e-02,-4.14,-3.86
1.654e-02,-4.42,-4.54
1.655e-02,-4.42,-3.98
1.657e-02,-4.1,-4.3
1.658e-02,-4.02,-3.74
1.659e-02,-3.9,-4.3
1.660e-02,-4.18,-3.86
1.662e-02,-4.54,-4.58
1.663e-02,-3.9,-3.82
1.664e-02,-3.82,-4.02
1.666e-02,-3.82,-3.7
1.667e-02,-4.14,-4.18
1.668e-02,-3.9,-3.7
1.669e-02,-4.18,-4.34
1.671e-02,-4.14,-3.9
1.672e-02,-3.98,-4.34
1.673e-02,-4.26,-3.78
1.675e-02,-4.42,-4.54
1.676e-02,-4.34,-3.74
1.677e-02,-4.3,-4.54
1.678e-02,-4.22,-3.82
1.680e-02,-3.98,-4.26
1.681e-02,-4.14,-3.7
1.682e-02,-4.26,-4.38
1.684e-02,-4.22,-4.06
1.685e-02,-4.1,-4.3
1.686e-02,-4.02,-3.86
1.687e-02,-4.06,-4.5
1.689e-02,-4.34,-3.86
1.690e-02,-4.1,-4.62
1.691e-02,-4.54,-3.9
1.692e-02,-4.1,-4.42
1.694e-02,-4.1,-3.74
1.695e-02,-4.26,-4.34
1.696e-02,-4.06,-3.78
1.698e-02,-4.38,-4.46
1.699e-02,-3.78,-3.7
1.700e-02,-4.14,-4.22
1.701e-02,-4.02,-3.86
1.703e-02,-3.94,-4.5
1.704e-02,-4.1,-3.86
1.705e-02,-4.18,-4.54
1.707e-02,-4.46,-4.02
1.708e-02,-4.42,-4.66
1.709e-02,-4.18,-4.06
1.710e-02,-4.26,-4.5
1.712e-02,-3.94,-3.86
1.713e-02,-3.9,-4.3
1.714e-02,-3.98,-3.82
1.716e-02,-4.02,-4.38
1.717e-02,-3.78,-3.66
1.718e-02,-3.86,-4.1
1.719e-02,-3.94,-3.66
1.721e-02,-4.14,-4.42
1.722e-02,-4.06,-3.98
1.723e-02,-3.94,-4.18
1.724e-02,-3.94,-3.58
1.726e-02,-4.34,-4.7
1.727e-02,-4.3,-4.02
1.728e-02,-4.54,-4.62
1.730e-02,-4.18,-4.06
1.731e-02,-4.34,-4.5
1.732e-02,-3.98,-3.82
1.733e-02,-4.22,-4.34
1.735e-02,-4.22,-3.74
1.736e-02,-4.14,-4.34
1.737e-02,-4.1,-3.98
1.739e-02,-4.02,-4.22
1.740e-02,-3.78,-3.7
1.741e-02,-4.06,-4.18
1.742e-02,-3.86,-3.74
1.744e-02,-4.18,-4.66
1.745e-02,-4.54,-3.98
1.746e-02,-4.1,-4.3
1.748e-02,-3.94,-3.86
1.749e-02,-3.5,-4.62
1.750e-02,-4.46,-3.42
1.751e-02,-3.98,-4.54
1.753e-02,-3.86,-3.74
1.754e-02,-3.82,-4.34
1.755e-02,-4.18,-3.74
1.756e-02,-4.06,-4.54
1.758e-02,-4.22,-3.9
1.759e-02,-4.18,-4.54
1.760e-02,-3.86,-3.7
1.762e-02,-4.34,-4.46
1.763e-02,-4.22,-4.14
1.764e-02,-3.86,-4.38
1.765e-02,-4.14,-3.74
1.767e-02,-4.06,-4.62
1.768e-02,-4.5,-3.86
1.769e-02,-4.3,-4.42
1.771e-02,-4.06,-3.9
1.772e-02,-4.38,-4.58
1.773e-02,-3.78,-3.66
1.774e-02,-4.22,-4.58
1.776e-02,-4.18,-3.9
1.777e-02,-4.18,-4.46
1.778e-02,-4.38,-3.98
1.780e-02,-4.22,-4.42
1.781e-02,-3.94,-3.82
1.782e-02,-4.3,-4.58
1.783e-02,-4.42,-4.1
1.785e-02,-3.78,-4.42
1.786e-02,-3.94,-3.58
1.787e-02,-4.14,-4.42
1.788e-02,-4.18,-3.86
1.790e-02,-4.18,-4.54
1.791e-02,-3.74,-3.54
1.792e-02,-4.38,-4.7
1.794e-02,-4.5,-4.1
1.795e-02,-4.38,-4.62
1.796e-02,-3.62,-3.58
1.797e-02,-3.74,-4.3
1.799e-02,-4.22,-3.54
1.800e-02,-4.22,-4.34
1.801e-02,-4.18,-3.94
1.803e-02,-4.54,-4.62
1.804e-02,-4.22,-3.98
1.805e-02,-4.22,-4.34
1.806e-02,-4.1,-3.98
1.808e-02,-4.5,-4.62
1.809e-02,-4.1,-3.9
1.810e-02,-4.02,-4.62
1.812e-02,-4.34,-3.82
1.813e-02,-3.94,-4.58
1.814e-02,-3.98,-3.86
1.815e-02,-3.82,-4.38
1.817e-02,-4.18,-3.74
1.818e-02,-4.14,-4.34
1.819e-02,-3.74,-3.62
1.820e-02,-4.14,-4.42
1.822e-02,-4.34,-3.9
1.823e-02,-4.5,-4.66
1.824e-02,-4.34,-4.14
1.826e-02,-5.02,-5.18
1.827e-02,-3.82,-3.7
1.828e-02,-4.1,-4.58
1.829e-02,-4.06,-3.82
1.831e-02,-4.22,-4.34
1.832e-02,-4.18,-3.9
1.833e-02,-4.02,-4.26
1.835e-02,-3.98,-3.74
1.836e-02,-3.9,-4.34
1.837e-02,-4.1,-3.66
1.838e-02,-4.78,-4.94
1.840e-02,-4.26,-4.1
1.841e-02,-4.18,-4.58
1.842e-02,-4.06,-3.98
1.844e-02,-4.18,-4.42
1.845e-02,-4.06,-3.9
1.846e-02,-4.1,-4.38
1.847e-02,-4.1,-3.94
1.849e-02,-3.9,-4.06
1.850e-02,-3.86,-3.74
1.851e-02,-4.14,-4.54
1.852e-02,-4.22,-3.86
1.854e-02,-4.22,-4.46
1.855e-02,-4.38,-3.78
1.856e-02,-4.22,-4.46
1.858e-02,-4.38,-4.06
1.859e-02,-3.98,-4.74
1.860e-02,-4.62,-3.86
1.861e-02,-3.98,-4.38
1.863e-02,-4.26,-3.86
1.864e-02,-4.1,-4.3
1.865e-02,-3.86,-3.74
1.867e-02,-3.82,-4.42
1.868e-02,-4.22,-3.7
1.869e-02,-3.98,-4.58
1.870e-02,-4.3,-3.9
1.872e-02,-4.54,-4.7
1.873e-02,-4.42,-4.06
1.874e-02,-4.1,-4.5
1.876e-02,-4.42,-3.94
1.877e-02,-3.98,-4.3
1.878e-02,-3.98,-3.82
1.879e-02,-3.7,-4.46
1.881e-02,-4.38,-3.5
1.882e-02,-4.26,-4.34
1.883e-02,-3.94,-3.86
1.884e-02,-4.02,-4.5
1.886e-02,-4.06,-3.74
1.887e-02,-4.1,-4.58
1.888e-02,-4.46,-3.98
1.890e-02,-3.82,-4.22
1.891e-02,-4.18,-3.66
1.892e-02,-4.38,-4.5
1.893e-02,-3.74,-3.66
1.895e-02,-4.38,-4.5
1.896e-02,-3.82,-3.5
1.897e-02,-4.26,-4.42
1.899e-02,-4.18,-3.5
1.900e-02,-4.18,-4.54
1.901e-02,-4.34,-3.82
1.902e-02,-4.1,-4.42
1.904e-02,-4.34,-3.94
1.905e-02,-4.26,-4.42
1.906e-02,-4.06,-3.94
1.908e-02,-4.06,-4.3
1.909e-02,-4.02,-3.86
1.910e-02,-4.3,-4.54
1.911e-02,-4.14,-4.02
1.913e-02,-4.1,-4.34
1.914e-02,-3.86,-3.58
1.915e-02,-4.06,-4.26
1.916e-02,-3.82,-3.74
1.918e-02,-4.3,-4.46
1.919e-02,-3.94,-3.58
1.920e-02,-4.54,-4.66
1.922e-02,-4.38,-4.22
1.923e-02,-4.14,-4.38
1.924e-02,-4.06,-3.98
1.925e-02,-4.26,-4.58
1.927e-02,-4.34,-4.1
1.928e-02,-4.06,-4.5
1.929e-02,-4.02,-3.78
1.931e-02,-4.26,-4.62
1.932e-02,-4.02,-3.62
1.933e-02,-4.22,-4.54
1.934e-02,-4.34,-3.78
1.936e-02,-3.98,-4.42
1.937e-02,-3.9,-3.74
1.938e-02,-4.18,-4.62
1.940e-02,-4.06,-3.98
1.941e-02,-4.26,-4.5
1.942e-02,-4.26,-3.9
1.943e-02,-4.06,-4.54
1.945e-02,-4.42,-3.86
1.946e-02,-4.34,-4.62
1.947e-02,-3.74,-3.66
1.948e-02,-4.18,-4.38
1.950e-02,-4.18,-3.86
1.951e-02,-3.94,-4.38
1.952e-02,-4.26,-3.86
1.954e-02,-4.18,-4.38
1.955e-02,-4.1,-3.86
1.956e-02,-4.26,-4.42
1.957e-02,-4.02,-3.86
1.959e-02,-3.98,-4.46
1.960e-02,-4.1,-3.74
1.961e-02,-4.54,-4.66
1.963e-02,-4.02,-3.74
1.964e-02,-3.98,-4.3
1.965e-02,-3.86,-3.7
1.966e-02,-4.3,-4.42
1.968e-02,-4.18,-3.74
1.969e-02,-4.3,-4.62
1.970e-02,-4.22,-3.78
1.972e-02,-4.14,-4.38
1.973e-02,-4.26,-4.06
1.974e-02,-4.42,-4.54
1.975e-02,-3.78,-3.66
1.977e-02,-4.18,-4.38
1.978e-02,-3.98,-3.82
1.979e-02,-3.94,-4.38
1.980e-02,-4.06,-3.74
1.982e-02,-3.9,-4.38
1.983e-02,-4.02,-3.74
1.984e-02,-3.86,-4.38
1.986e-02,-4.26,-3.82
1.987e-02,-4.26,-4.54
1.988e-02,-4.34,-4.1
1.989e-02,-4.22,-4.54
1.991e-02,-4.06,-3.94
1.992e-02,-4.1,-4.62
1.993e-02,-4.38,-3.94
1.995e-02,-3.98,-4.46
1.996e-02,-4.26,-3.86
1.997e-02,-4.14,-4.5
1.998e-02,-3.9,-3.82
2.000e-02,-4.22,-4.42
2.001e-02,-4.06,-3.86
2.002e-02,-4.1,-4.9
2.004e-02,-4.82,-4.02
2.005e-02,-4.54,-4.78
2.006e-02,-4.54,-4.1
2.007e-02,-4.22,-4.5
2.009e-02,-4.38,-4.06
2.010e-02,-4.14,-4.38
2.011e-02,-3.74,-3.66
2.012e-02,-4.14,-4.5
2.014e-02,-4.26,-3.98
2.015e-02,-3.94,-4.46
2.016e-02,-3.82,-3.62
2.018e-02,-4.3,-4.46
2.019e-02,-4.26,-3.7
2.020e-02,-3.9,-4.38
2.021e-02,-4.06,-3.78
2.023e-02,-4.26,-4.62
2.024e-02,-4.34,-4.02
2.025e-02,-4.46,-4.74
2.027e-02,-3.94,-3.82
2.028e-02,-3.54,-4.3
2.029e-02,-4.18,-3.46
2.030e-02,-3.78,-4.18
2.032e-02,-4.02,-3.58
2.033e-02,-4.1,-4.5
2.034e-02,-3.74,-3.66
2.036e-02,-3.78,-4.74
2.037e-02,-4.66,-3.66
2.038e-02,-4.74,-4.82
2.039e-02,-4.06,-3.86
2.041e-02,-3.94,-4.38
2.042e-02,-4.1,-3.74
2.043e-02,-4.02,-4.5
2.044e-02,-4.42,-3.74
2.046e-02,-3.78,-4.18
2.047e-02,-3.94,-3.58
2.048e-02,-4.3,-4.42
2.050e-02,-4.18,-3.86
2.051e-02,-4.22,-4.54
2.052e-02,-4.3,-3.94
2.053e-02,-4.22,-4.3
2.055e-02,-4.14,-3.9
2.056e-02,-4.74,-4.86
2.057e-02,-4.22,-3.74
2.059e-02,-3.94,-4.38
2.060e-02,-4.26,-3.58
2.061e-02,-4.26,-4.46
2.062e-02,-4.1,-3.78
2.064e-02,-3.98,-4.22
2.065e-02,-3.9,-3.62
2.066e-02,-4.06,-4.26
2.068e-02,-4.14,-3.66
2.069e-02,-4.58,-4.66
2.070e-02,-3.98,-3.86
2.071e-02,-4.26,-4.5
2.073e-02,-4.38,-3.98
2.074e-02,-3.98,-4.46
2.075e-02,-4.18,-3.9
2.076e-02,-4.3,-4.46
2.078e-02,-4.34,-4.06
2.079e-02,-4.02,-4.38
2.080e-02,-4.14,-3.74
2.082e-02,-3.82,-4.3
2.083e-02,-3.58,-3.5
2.084e-02,-4.26,-4.5
2.085e-02,-4.26,-3.98
2.087e-02,-4.14,-4.42
2.088e-02,-4.22,-3.94
2.089e-02,-4.5,-4.62
2.091e-02,-4.22,-4.1
2.092e-02,-4.5,-4.58
2.093e-02,-4.3,-4.14
2.094e-02,-4.26,-4.54
2.096e-02,-3.98,-3.66
2.097e-02,-4.1,-4.34
2.098e-02,-4.1,-3.78
2.100e-02,-4.02,-4.34
2.101e-02,-4.02,-3.78
2.102e-02,-4.14,-4.22
2.103e-02,-4.02,-3.94
2.105e-02,-4.18,-4.38
2.106e-02,-4.18,-3.9
2.107e-02,-4.26,-4.46
2.108e-02,-4.38,-4.02
2.110e-02,-3.82,-4.46
2.111e-02,-4.26,-3.74
2.112e-02,-3.98,-4.18
2.114e-02,-4.1,-3.82
2.115e-02,-4.22,-4.34
2.116e-02,-4.1,-3.9
2.117e-02,-4.58,-4.66
2.119e-02,-4.06,-3.98
2.120e-02,-4.38,-4.74
2.121e-02,-4.42,-4.1
2.123e-02,-4.26,-4.78
2.124e-02,-4.1,-3.9
2.125e-02,-3.9,-4.34
2.126e-02,-4.14,-3.7
2.128e-02,-4.42,-4.54
2.129e-02,-4.06,-3.86
2.130e-02,-3.86,-4.54
2.132e-02,-4.46,-3.78
2.133e-02,-4.22,-4.54
2.134e-02,-4.18,-3.9
2.135e-02,-4.1,-4.34
2.137e-02,-4.1,-3.94
2.138e-02,-4.54,-4.62
2.139e-02,-4.18,-4.1
2.140e-02,-3.9,-4.26
2.142e-02,-4.18,-3.78
2.143e-02,-3.9,-4.1
2.144e-02,-3.78,-3.66
2.146e-02,-3.94,-4.22
2.147e-02,-3.86,-3.62
2.148e-02,-4.02,-4.26
2.149e-02,-4.14,-3.78
2.151e-02,-4.26,-4.38
2.152e-02,-4.3,-3.74
2.153e-02,-4.14,-4.62
2.155e-02,-4.3,-4.02
2.156e-02,-4.18,-4.62
2.157e-02,-4.46,-4.06
2.158e-02,-3.86,-4.42
2.160e-02,-3.98,-3.74
2.161e-02,-4.46,-4.54
2.162e-02,-3.98,-3.86
2.164e-02,-4.02,-4.22
2.165e-02,-4.02,-3.82
2.166e-02,-4.34,-4.54
2.167e-02,-4.14,-3.94
2.169e-02,-4.46,-4.58
2.170e-02,-4.06,-3.9
2.171e-02,-4.06,-4.42
2.172e-02,-4.26,-3.94
2.174e-02,-4.34,-4.58
2.175e-02,-4.3,-3.94
2.176e-02,-4.02,-4.14
2.178e-02,-4.02,-3.9
2.179e-02,-3.66,-4.14
2.180e-02,-3.7,-3.5
2.181e-02,-4.3,-4.58
2.183e-02,-4.18,-3.9
2.184e-02,-4.46,-4.58
2.185e-02,-4.3,-4.22
2.187e-02,-4.66,-4.78
2.188e-02,-4.1,-3.98
2.189e-02,-4.22,-4.3
2.190e-02,-3.98,-3.82
2.192e-02,-4.18,-4.38
2.193e-02,-4.06,-3.94
2.194e-02,-4.22,-4.34
2.196e-02,-3.7,-3.42
2.197e-02,-4.1,-4.58
2.198e-02,-4.38,-3.42
2.199e-02,-4.22,-4.5
2.201e-02,-4.46,-3.98
2.202e-02,-4.22,-4.42
2.203e-02,-4.1,-3.86
2.204e-02,-4.06,-4.3
2.206e-02,-4.14,-3.78
2.207e-02,-4.3,-4.38
2.208e-02,-3.78,-3.66
2.210e-02,-4.42,-4.54
2.211e-02,-3.9,-3.74
2.212e-02,-4.02,-4.34
2.213e-02,-4.14,-3.74
2.215e-02,-3.82,-4.38
2.216e-02,-4.14,-3.7
2.217e-02,-4.06,-4.66
2.219e-02,-4.1,-3.86
2.220e-02,-4.38,-4.7
2.221e-02,-4.14,-3.98
2.222e-02,-4.42,-4.54
2.224e-02,-4.34,-4.1
2.225e-02,-4.5,-4.58
2.226e-02,-3.94,-3.78
2.228e-02,-3.82,-4.22
2.229e-02,-4.06,-3.74
2.230e-02,-3.86,-4.22
2.231e-02,-4.06,-3.74
2.233e-02,-3.86,-4.54
2.234e-02,-4.42,-3.78
2.235e-02,-3.94,-4.54
2.236e-02,-4.22,-3.86
2.238e-02,-4.18,-4.34
2.239e-02,-4.02,-3.94
2.240e-02,-4.18,-4.3
2.242e-02,-3.98,-3.86
2.243e-02,-4.06,-4.38
2.244e-02,-3.94,-3.78
2.245e-02,-4.1,-4.34
2.247e-02,-3.98,-3.78
2.248e-02,-4.22,-4.3
2.249e-02,-4.06,-3.94
2.251e-02,-4.46,-4.58
2.252e-02,-4.26,-3.9
2.253e-02,-4.7,-4.9
2.254e-02,-4.58,-4.14
2.256e-02,-3.98,-5.06
2.257e-02,-4.46,-3.78
2.258e-02,-3.9,-5.06
2.260e-02,-4.02,-3.7
2.261e-02,-3.9,-4.06
2.262e-02,-3.82,-3.66
2.263e-02,-4.14,-4.34
2.265e-02,-4.1,-3.74
2.266e-02,-4.14,-4.46
2.267e-02,-4.22,-4.02
2.268e-02,-3.94,-4.7
2.270e-02,-4.62,-3.58
2.271e-02,-4.3,-4.62
2.272e-02,-4.22,-3.86
2.274e-02,-3.94,-4.26
2.275e-02,-3.94,-3.86
2.276e-02,-4.58,-4.66
2.277e-02,-3.82,-3.66
2.279e-02,-3.98,-4.34
2.280e-02,-3.94,-3.74
2.281e-02,-4.02,-4.38
2.283e-02,-4.14,-3.94
2.284e-02,-4.22,-4.62
2.285e-02,-4.02,-3.94
2.286e-02,-4.22,-4.5
2.288e-02,-4.34,-3.94
2.289e-02,-4.34,-4.5
2.290e-02,-4.22,-3.98
2.292e-02,-3.82,-4.1
2.293e-02,-4.02,-3.74
2.294e-02,-4.14,-4.26
2.295e-02,-3.86,-3.62
2.297e-02,-3.86,-4.14
2.298e-02,-3.9,-3.38
2.299e-02,-3.82,-4.5
2.300e-02,-4.34,-3.66
2.302e-02,-4.26,-4.5
2.303e-02,-4.3,-3.9
2.304e-02,-4.18,-4.34
2.306e-02,-4.1,-3.82
2.307e-02,-3.9,-4.58
2.308e-02,-4.26,-3.78
2.309e-02,-3.66,-4.42
2.311e-02,-4.34,-3.58
2.312e-02,-3.9,-4.46
2.313e-02,-3.9,-3.62
2.315e-02,-3.82,-4.5
2.316e-02,-4.38,-3.66
2.317e-02,-4.66,-4.74
2.318e-02,-4.06,-3.86
2.320e-02,-4.14,-4.54
2.321e-02,-4.42,-3.86
2.322e-02,-4.34,-4.5
2.324e-02,-4.1,-3.78
2.325e-02,-3.82,-4.46
2.326e-02,-4.22,-3.7
2.327e-02,-3.98,-4.42
2.329e-02,-4.34,-3.74
2.330e-02,-4.3,-4.54
2.331e-02,-4.42,-4.02
2.332e-02,-3.86,-4.62
2.334e-02,-4.18,-3.66
2.335e-02,-4.26,-4.58
2.336e-02,-4.38,-3.9
2.338e-02,-4.06,-4.5
2.339e-02,-4.14,-3.74
2.340e-02,-4.02,-4.3
2.341e-02,-3.86,-3.74
2.343e-02,-4.3,-4.38
2.344e-02,-4.18,-4.06
2.345e-02,-3.98,-4.22
2.347e-02,-3.86,-3.78
2.348e-02,-4.14,-4.3
2.349e-02,-4.06,-3.9
2.350e-02,-3.94,-4.22
2.352e-02,-3.9,-3.66
2.353e-02,-4.3,-4.42
2.354e-02,-4.14,-3.98
2.356e-02,-4.14,-4.5
2.357e-02,-4.34,-3.9
2.358e-02,-4.14,-4.46
2.359e-02,-4.06,-3.86
2.361e-02,-4.1,-4.18
2.362e-02,-3.9,-3.66
2.363e-02,-4.18,-4.46
2.364e-02,-4.06,-3.86
2.366e-02,-4.58,-4.78
2.367e-02,-3.86,-3.78
2.368e-02,-4.18,-4.7
2.370e-02,-4.62,-4.06
2.371e-02,-4.38,-4.58
2.372e-02,-4.46,-4.1
2.373e-02,-4.1,-4.54
2.375e-02,-4.14,-3.86
2.376e-02,-4.5,-4.58
2.377e-02,-3.94,-3.86
2.379e-02,-4.38,-4.46
2.380e-02,-4.26,-3.94
2.381e-02,-4.26,-4.66
2.382e-02,-4.3,-3.78
2.384e-02,-3.9,-4.66
2.385e-02,-4.38,-3.82
2.386e-02,-4.18,-4.46
2.388e-02,-4.22,-3.94
2.389e-02,-3.98,-4.38
2.390e-02,-4.1,-3.9
2.391e-02,-4.14,-4.38
2.393e-02,-4.26,-3.94
2.394e-02,-4.02,-4.38
2.395e-02,-4.26,-3.86
2.396e-02,-3.94,-4.54
2.398e-02,-4.46,-3.86
2.399e-02,-3.94,-4.38
2.400e-02,-4.06,-3.66
2.402e-02,-4.34,-4.46
2.403e-02,-4.18,-4.02
2.404e-02,-4.22,-4.3
2.405e-02,-4.06,-3.86
2.407e-02,-4.18,-4.22
2.408e-02,-3.78,-3.62
2.409e-02,-4.46,-4.58
2.411e-02,-4.1,-3.78
2.412e-02,-3.9,-4.34
2.413e-02,-4.22,-3.66
2.414e-02,-3.9,-4.3
2.416e-02,-4.18,-3.78
2.417e-02,-4.14,-4.58
2.418e-02,-4.46,-3.86
2.420e-02,-4.1,-4.58
2.421e-02,-4.18,-4.06
2.422e-02,-3.86,-4.42
2.423e-02,-4.3,-3.78
2.425e-02,-4.14,-4.22
2.426e-02,-3.9,-3.7
2.427e-02,-3.86,-4.1
2.428e-02,-3.94,-3.7
2.430e-02,-4.02,-4.54
2.431e-02,-4.46,-3.74
2.432e-02,-4.46,-4.62
2.434e-02,-4.5,-4.3
2.435e-02,-4.02,-4.42
2.436e-02,-4.06,-3.94
2.437e-02,-4.5,-4.58
2.439e-02,-3.98,-3.86
2.440e-02,-4.22,-4.42
2.441e-02,-4.14,-3.86
2.443e-02,-4.02,-4.5
2.444e-02,-3.78,-3.62
2.445e-02,-4.1,-4.42
2.446e-02,-3.78,-3.62
2.448e-02,-4.38,-4.7
2.449e-02,-4.18,-3.98
2.450e-02,-4.06,-4.5
2.452e-02,-4.18,-3.7
2.453e-02,-4.18,-4.42
2.454e-02,-3.98,-3.82
2.455e-02,-3.94,-4.38
2.457e-02,-4.14,-3.74
2.458e-02,-4.22,-4.34
2.459e-02,-3.62,-3.5
2.460e-02,-4.1,-4.34
2.462e-02,-4.22,-3.98
2.463e-02,-4.22,-4.5
2.464e-02,-4.26,-3.86
2.466e-02,-4.14,-4.34
2.467e-02,-4.22,-3.9
2.468e-02,-4.3,-4.38
2.469e-02,-4.02,-3.94
2.471e-02,-4.06,-4.38
2.472e-02,-4.1,-3.66
2.473e-02,-4.1,-4.34
2.475e-02,-3.7,-3.66
2.476e-02,-4.26,-4.34
2.477e-02,-3.78,-3.66
2.478e-02,-4.06,-4.46
2.480e-02,-4.14,-3.86
2.481e-02,-4.3,-4.46
2.482e-02,-4.3,-3.94
2.484e-02,-4.14,-4.58
2.485e-02,-4.46,-4.06
2.486e-02,-4.46,-4.54
2.487e-02,-4.06,-3.82
2.489e-02,-3.86,-4.18
2.490e-02,-4.1,-3.58
2.491e-02,-4.22,-4.34
2.492e-02,-3.58,-3.42
2.494e-02,-3.74,-4.3
2.495e-02,-4.18,-3.66
2.496e-02,-3.98,-4.66
2.498e-02,-4.26,-3.9
2.499e-02,-4.26,-4.7
2.500e-02,-4.58,-4.18
2.501e-02,-4.42,-4.66
2.503e-02,-4.22,-4.14
2.504e-02,-4.18,-4.34
2.505e-02,-4.06,-3.74
2.507e-02,-4.14,-4.34
2.508e-02,-4.06,-3.94
2.509e-02,-3.98,-4.18
2.510e-02,-3.94,-3.54
2.512e-02,-4.22,-4.86
2.513e-02,-4.38,-4.02
2.514e-02,-4.22,-4.82
2.516e-02,-3.94,-3.7
2.517e-02,-4.42,-4.54
2.518e-02,-4.34,-3.98
2.519e-02,-4.38,-4.66
2.521e-02,-4.5,-3.94
2.522e-02,-4.26,-4.5
2.523e-02,-4.14,-3.94
2.524e-02,-3.78,-4.1
2.526e-02,-3.86,-3.7
2.527e-02,-4.22,-4.34
2.528e-02,-4.06,-3.78
2.530e-02,-4.02,-4.22
2.531e-02,-4.18,-3.7
2.532e-02,-4.1,-4.46
2.533e-02,-4.22,-3.82
2.535e-02,-4.18,-4.46
2.536e-02,-4.14,-4.02
2.537e-02,-4.34,-4.54
2.539e-02,-4.22,-3.78
2.540e-02,-4.02,-4.3
2.541e-02,-3.98,-3.62
2.542e-02,-4.14,-4.22
2.544e-02,-4.02,-3.82
2.545e-02,-4.34,-4.46
2.546e-02,-4.18,-3.86
2.548e-02,-4.42,-4.58
2.549e-02,-4.42,-4.06
2.550e-02,-4.1,-4.3
2.551e-02,-4.02,-3.9
2.553e-02,-4.18,-4.34
2.554e-02,-3.9,-3.82
2.555e-02,-4.38,-4.5
2.556e-02,-4.22,-4.06
2.558e-02,-4.18,-4.54
2.559e-02,-4.34,-3.86
2.560e-02,-3.94,-4.38
2.562e-02,-4.18,-3.82
2.563e-02,-4.3,-4.5
2.564e-02,-4.14,-3.78
2.565e-02,-3.78,-4.34
2.567e-02,-4.26,-3.66
2.568e-02,-3.94,-4.78
2.569e-02,-4.66,-3.78
2.571e-02,-4.1,-4.54
2.572e-02,-4.1,-3.9
2.573e-02,-3.94,-4.22
2.574e-02,-3.82,-3.62
2.576e-02,-3.94,-4.7
2.577e-02,-4.54,-3.66
2.578e-02,-4.14,-4.5
2.580e-02,-4.06,-3.9
2.581e-02,-4.26,-4.62
2.582e-02,-4.54,-4.14
2.583e-02,-4.1,-4.42
2.585e-02,-4.1,-4.02
2.586e-02,-4.42,-4.7
2.587e-02,-4.5,-4.06
2.588e-02,-3.94,-4.54
2.590e-02,-4.42,-3.74
2.591e-02,-4.18,-4.34
2.592e-02,-4.18,-3.9
2.594e-02,-4.3,-4.38
2.595e-02,-3.98,-3.9
2.596e-02,-4.38,-4.58
2.597e-02,-4.18,-3.98
2.599e-02,-4.26,-4.34
2.600e-02,-3.98,-3.82
2.601e-02,-3.98,-4.42
2.603e-02,-4.14,-3.9
2.604e-02,-4.14,-4.38
2.605e-02,-4.06,-3.82
2.606e-02,-3.98,-4.26
2.608e-02,-4.18,-3.82
2.609e-02,-4.46,-4.62
2.610e-02,-4.26,-3.98
2.612e-02,-4.5,-4.58
2.613e-02,-3.98,-3.82
2.614e-02,-4.54,-4.82
2.615e-02,-4.74,-4.26
2.617e-02,-4.54,-4.82
2.618e-02,-4.02,-3.86
2.619e-02,-4.14,-4.5
2.620e-02,-4.34,-3.94
2.622e-02,-4.1,-4.38
2.623e-02,-3.9,-3.82
2.624e-02,-4.58,-4.78
2.626e-02,-4.5,-3.82
2.627e-02,-3.94,-4.18
2.628e-02,-3.94,-3.62
2.629e-02,-4.22,-4.3
2.631e-02,-3.54,-3.42
2.632e-02,-4.5,-4.58
2.633e-02,-4.3,-3.66
2.635e-02,-3.7,-4.5
2.636e-02,-4.38,-3.62
2.637e-02,-3.86,-4.5
2.638e-02,-4.38,-3.66
2.640e-02,-4.06,-4.22
2.641e-02,-3.66,-3.5
2.642e-02,-4.1,-4.34
2.644e-02,-4.14,-3.62
2.645e-02,-3.94,-4.5
2.646e-02,-4.14,-3.86
2.647e-02,-3.98,-4.46
2.649e-02,-4.22,-3.9
2.650e-02,-3.98,-4.62
2.651e-02,-4.14,-3.9
2.652e-02,-3.94,-4.46
2.654e-02,-4.26,-3.78
2.655e-02,-4.22,-4.38
2.656e-02,-4.06,-3.82
2.658e-02,-4.14,-4.58
2.659e-02,-3.86,-3.78
2.660e-02,-4.38,-4.74
2.661e-02,-4.54,-3.94
2.663e-02,-3.86,-4.86
2.664e-02,-4.62,-3.62
2.665e-02,-4.06,-4.66
2.667e-02,-3.98,-3.62
2.668e-02,-4.06,-4.5
2.669e-02,-4.34,-3.66
2.670e-02,-4.1,-4.5
2.672e-02,-4.14,-3.94
2.673e-02,-4.22,-4.34
2.674e-02,-4.22,-3.74
2.676e-02,-4.38,-4.62
2.677e-02,-3.86,-3.74
2.678e-02,-4.18,-4.34
2.679e-02,-4.06,-3.9
2.681e-02,-4.46,-4.62
2.682e-02,-3.98,-3.9
2.683e-02,-4.46,-4.66
2.684e-02,-3.82,-3.74
2.686e-02,-4.5,-4.78
2.687e-02,-3.78,-3.62
2.688e-02,-4.14,-4.22
2.690e-02,-3.78,-3.7
2.691e-02,-4.06,-4.26
2.692e-02,-4.02,-3.74
2.693e-02,-4.02,-4.38
2.695e-02,-4.26,-3.94
2.696e-02,-4.26,-4.58
2.697e-02,-4.5,-4.1
2.699e-02,-4.46,-4.58
2.700e-02,-4.14,-4.06
2.701e-02,-4.38,-4.54
2.702e-02,-4.22,-4.14
2.704e-02,-4.1,-4.42
2.705e-02,-3.9,-3.78
2.706e-02,-3.94,-4.5
2.708e-02,-4.38,-3.66
2.709e-02,-3.98,-4.42
2.710e-02,-4.34,-3.82
2.711e-02,-3.98,-4.34
2.713e-02,-3.86,-3.78
2.714e-02,-4.1,-4.5
2.715e-02,-4.34,-3.78
2.716e-02,-4.1,-4.42
2.718e-02,-4.18,-3.94
2.719e-02,-3.9,-4.46
2.720e-02,-4.18,-3.74
2.722e-02,-4.22,-4.46
2.723e-02,-4.1,-3.7
2.724e-02,-3.74,-4.22
2.725e-02,-3.98,-3.54
2.727e-02,-4.14,-4.42
2.728e-02,-4.1,-3.86
2.729e-02,-4.06,-4.34
2.731e-02,-4.26,-3.86
2.732e-02,-3.86,-4.14
2.733e-02,-4.02,-3.74
2.734e-02,-3.98,-4.7
2.736e-02,-4.62,-3.94
2.737e-02,-4.02,-4.26
2.738e-02,-4.1,-3.9
2.740e-02,-4.02,-4.3
2.741e-02,-3.98,-3.74
2.742e-02,-4.22,-4.5
2.743e-02,-4.02,-3.9
2.745e-02,-4.18,-4.38
2.746e-02,-4.18,-4.06
2.747e-02,-3.94,-4.34
2.748e-02,-4.1,-3.86
2.750e-02,-4.34,-4.42
2.751e-02,-3.98,-3.9
2.752e-02,-4.22,-4.42
2.754e-02,-3.78,-3.66
2.755e-02,-3.94,-4.1
2.756e-02,-3.98,-3.5
2.757e-02,-4.18,-5.02
2.759e-02,-4.94,-3.62
2.760e-02,-3.82,-4.46
2.761e-02,-4.18,-3.62
2.763e-02,-4.22,-4.42
2.764e-02,-4.3,-3.82
2.765e-02,-4.02,-4.54
2.766e-02,-4.46,-3.7
2.768e-02,-4.1,-4.38
2.769e-02,-3.74,-3.66
2.770e-02,-4.26,-4.38
2.772e-02,-4.06,-3.78
2.773e-02,-3.94,-4.26
2.774e-02,-4.06,-3.7
2.775e-02,-3.86,-4.3
2.777e-02,-4.18,-3.7
2.778e-02,-4.42,-4.62
2.779e-02,-4.18,-4.02
2.780e-02,-4.18,-4.5
2.782e-02,-4.18,-3.94
2.783e-02,-4.18,-4.62
2.784e-02,-4.38,-3.74
2.786e-02,-3.74,-4.5
2.787e-02,-4.14,-3.66
2.788e-02,-4.66,-4.82
2.789e-02,-4.1,-3.86
2.791e-02,-3.86,-4.22
2.792e-02,-4.06,-3.62
2.793e-02,-4.02,-4.42
2.795e-02,-4.34,-3.94
2.796e-02,-4.42,-4.66
2.797e-02,-4.22,-3.86
2.798e-02,-4.06,-4.66
2.800e-02,-4.42,-3.94
2.801e-02,-3.94,-4.46
2.802e-02,-3.78,-3.58
2.804e-02,-4.26,-4.42
2.805e-02,-4.18,-3.7
2.806e-02,-4.46,-4.54
2.807e-02,-3.9,-3.78
2.809e-02,-4.14,-4.26
2.810e-02,-4.14,-4.02
2.811e-02,-4.46,-4.54
2.812e-02,-4.22,-3.9
2.814e-02,-4.1,-4.66
2.815e-02,-4.46,-3.9
2.816e-02,-4.22,-4.66
2.818e-02,-3.86,-3.7
2.819e-02,-4.14,-4.38
2.820e-02,-4.3,-3.82
2.821e-02,-3.86,-4.22
2.823e-02,-4.06,-3.7
2.824e-02,-4.14,-4.58
2.825e-02,-4.42,-3.9
2.827e-02,-4.1,-4.18
2.828e-02,-3.9,-3.5
2.829e-02,-3.82,-4.22
2.830e-02,-4.06,-3.78
2.832e-02,-3.94,-4.66
2.833e-02,-4.46,-3.58
2.834e-02,-4.38,-4.66
2.836e-02,-4.14,-3.86
2.837e-02,-4.1,-4.54
2.838e-02,-3.66,-3.58
2.839e-02,-4.3,-4.5
2.841e-02,-3.9,-3.74
2.842e-02,-4.14,-4.22
2.843e-02,-4.06,-3.86
2.844e-02,-4.06,-4.38
2.846e-02,-4.18,-3.82
2.847e-02,-4.42,-4.82
2.848e-02,-4.62,-3.86
2.850e-02,-4.3,-4.5
2.851e-02,-4.22,-3.86
2.852e-02,-4.02,-4.5
2.853e-02,-3.9,-3.82
2.855e-02,-3.66,-4.1
2.856e-02,-3.94,-3.58
2.857e-02,-3.94,-4.14
2.859e-02,-3.78,-3.7
2.860e-02,-4.26,-4.38
2.861e-02,-4.06,-3.74
2.862e-02,-3.98,-4.58
2.864e-02,-4.46,-3.9
2.865e-02,-3.82,-4.58
2.866e-02,-4.5,-3.7
2.868e-02,-4.18,-4.62
2.869e-02,-4.54,-4.02
2.870e-02,-4.06,-4.46
2.871e-02,-3.74,-3.46
2.873e-02,-4.02,-4.1
2.874e-02,-3.94,-3.5
2.875e-02,-3.86,-4.14
2.876e-02,-4.02,-3.66
2.878e-02,-4.02,-4.5
2.879e-02,-4.42,-3.62
2.880e-02,-4.38,-4.5
2.882e-02,-4.1,-3.98
2.883e-02,-4.38,-4.58
2.884e-02,-4.5,-4.06
2.885e-02,-4.22,-4.5
2.887e-02,-3.78,-3.5
2.888e-02,-3.98,-4.14
2.889e-02,-3.7,-3.58
2.891e-02,-4.18,-4.58
2.892e-02,-3.94,-3.74
2.893e-02,-3.58,-4.54
2.894e-02,-4.3,-3.5
2.896e-02,-4.54,-4.7
2.897e-02,-3.9,-3.82
2.898e-02,-4.1,-4.42
2.900e-02,-3.94,-3.74
2.901e-02,-4.22,-4.58
2.902e-02,-4.14,-3.98
2.903e-02,-4.3,-4.42
2.905e-02,-4.18,-3.82
2.906e-02,-4.18,-4.22
2.907e-02,-3.9,-3.74
2.908e-02,-4.3,-4.38
2.910e-02,-4.02,-3.94
2.911e-02,-4.14,-4.42
2.912e-02,-4.3,-3.94
2.914e-02,-4.38,-4.62
2.915e-02,-4.14,-3.98
2.916e-02,-4.34,-4.62
2.917e-02,-4.26,-3.94
2.919e-02,-4.22,-4.34
2.920e-02,-4.06,-3.78
2.921e-02,-3.66,-4.5
2.923e-02,-4.42,-3.46
2.924e-02,-3.74,-4.34
2.925e-02,-4.26,-3.66
2.926e-02,-4.26,-4.62
2.928e-02,-4.46,-4.06
2.929e-02,-4.46,-4.54
2.930e-02,-4.3,-4.06
2.932e-02,-4.46,-4.66
2.933e-02,-4.3,-4.1
2.934e-02,-4.34,-4.42
2.935e-02,-4.1,-3.74
2.937e-02,-4.14,-4.22
2.938e-02,-3.94,-3.74
2.939e-02,-4.22,-4.5
2.940e-02,-4.42,-4.06
2.942e-02,-4.34,-4.42
2.943e-02,-4.1,-3.98
2.944e-02,-4.34,-4.42
2.946e-02,-4.06,-3.94
2.947e-02,-4.46,-4.66
2.948e-02,-4.26,-3.98
2.949e-02,-4.18,-4.46
2.951e-02,-4.38,-4.02
2.952e-02,-4.06,-4.42
2.953e-02,-3.78,-3.62
2.955e-02,-3.94,-4.3
2.956e-02,-3.74,-3.54
2.957e-02,-4.26,-4.46
2.958e-02,-4.34,-3.62
2.960e-02,-4.02,-4.34
2.961e-02,-4.22,-3.7
2.962e-02,-4.46,-4.54
2.964e-02,-4.06,-3.94
2.965e-02,-4.02,-4.34
2.966e-02,-4.26,-3.94
2.967e-02,-3.9,-4.3
2.969e-02,-4.06,-3.78
2.970e-02,-3.82,-4.14
2.971e-02,-3.74,-3.62
2.972e-02,-4.14,-4.38
2.974e-02,-4.18,-3.78
2.975e-02,-3.78,-4.5
2.976e-02,-4.14,-3.66
2.978e-02,-4.06,-4.46
2.979e-02,-4.18,-3.86
2.980e-02,-3.94,-4.42
2.981e-02,-3.94,-3.78
2.983e-02,-3.94,-4.26
2.984e-02,-3.7,-3.34
2.985e-02,-4.18,-4.86
2.987e-02,-4.02,-3.34
2.988e-02,-7.06,-7.06
2.989e-02,-7.06,3.1
2.990e-02,3.1,-7.06
2.992e-02,-1.74,3.1
2.993e-02,1.22,1.02
2.994e-02,1.1,2.06
2.996e-02,0.86,0.62
2.997e-02,1.02,1.3
2.998e-02,0.94,0.38
2.999e-02,0.54,1.26
3.001e-02,0.94,0.42
3.002e-02,0.54,1.06
3.003e-02,0.9,0.38
3.004e-02,0.5,1.06
3.006e-02,0.54,0.42
3.007e-02,0.58,0.94
3.008e-02,0.46,0.38
3.010e-02,0.66,0.98
3.011e-02,0.5,0.34
3.012e-02,0.5,0.74
3.013e-02,0.18,0.06
3.015e-02,0.38,0.58
3.016e-02,0.1,-0.1
3.017e-02,0.26,0.46
3.019e-02,0.3,0.06
3.020e-02,0.46,0.58
3.021e-02,0.1,0.02
3.022e-02,0.26,0.5
3.024e-02,0.02,-0.38
3.025e-02,-0.3,0.62
3.026e-02,0.14,-0.02
3.028e-02,0.18,0.3
3.029e-02,0.06,-0.34
3.030e-02,-0.18,0.14
3.031e-02,-0.62,-0.7
3.033e-02,0.02,0.18
3.034e-02,-0.14,-0.26
3.035e-02,-0.14,0.1
3.036e-02,-0.14,-0.46
3.038e-02,-0.14,0.14
3.039e-02,-0.1,-0.42
3.040e-02,-0.22,0.02
3.042e-02,-0.5,-1.1
3.043e-02,-0.74,-0.26
3.044e-02,-0.74,-1.02
3.045e-02,-0.74,-0.5
3.047e-02,-0.98,-1.1
3.048e-02,-0.9,-0.62
3.049e-02,-0.82,-1.02
3.051e-02,-0.86,-0.5
3.052e-02,-0.9,-1.14
3.053e-02,-0.62,-0.5
3.054e-02,-0.98,-1.66
3.056e-02,-1.18,-0.62
3.057e-02,-1.06,-1.66
3.058e-02,-0.98,-0.7
3.060e-02,-1.38,-1.82
3.061e-02,-1.74,-0.74
3.062e-02,-1.38,-1.9
3.063e-02,-1.62,-1.14
3.065e-02,-1.78,-2.02
3.066e-02,-1.82,-1.54
3.067e-02,-1.5,-2.06
3.068e-02,-1.7,-1.22
3.070e-02,-1.86,-2.14
3.071e-02,-1.9,-1.74
3.072e-02,-1.46,-2.18
3.074e-02,-2.1,-1.34
3.075e-02,-1.86,-2.14
3.076e-02,-1.98,-1.34
3.077e-02,-2.18,-2.46
3.079e-02,-2.38,-1.62
3.080e-02,-2.06,-2.38
3.081e-02,-2.1,-1.82
3.083e-02,-2.58,-2.82
3.084e-02,-2.14,-1.82
3.085e-02,-2.38,-2.74
3.086e-02,-2.22,-2.02
3.088e-02,-2.42,-2.66
3.089e-02,-2.3,-2.1
3.090e-02,-2.22,-2.9
3.092e-02,-2.66,-2.1
3.093e-02,-2.58,-3.02
3.094e-02,-2.42,-2.22
3.095e-02,-2.98,-3.06
3.097e-02,-2.78,-2.62
3.098e-02,-2.58,-2.98
3.099e-02,-2.82,-2.42
3.100e-02,-2.1,-3.02
3.102e-02,-2.62,-2.06
3.103e-02,-2.54,-3.14
3.104e-02,-2.94,-2.3
3.106e-02,-2.74,-3.06
3.107e-02,-2.66,-2.54
3.108e-02,-3.3,-3.42
3.109e-02,-2.58,-2.42
3.111e-02,-2.98,-3.42
3.112e-02,-3.1,-2.54
3.113e-02,-3.1,-3.46
3.115e-02,-2.86,-2.78
3.116e-02,-3.5,-3.62
3.117e-02,-2.9,-2.7
3.118e-02,-2.82,-3.38
3.120e-02,-3.34,-2.7
3.121e-02,-3.22,-3.38
3.122e-02,-2.9,-2.86
3.124e-02,-3.06,-3.62
3.125e-02,-3.3,-2.66
3.126e-02,-3.86,-4.02
3.127e-02,-3.62,-3.26
3.129e-02,-3.38,-3.66
3.130e-02,-3.5,-3.22
3.131e-02,-3.34,-3.62
3.132e-02,-3.42,-3.18
3.134e-02,-3.62,-3.78
3.135e-02,-3.3,-3.22
3.136e-02,-3.3,-4.02
3.138e-02,-3.9,-3.18
3.139e-02,-3.1,-3.78
3.140e-02,-3.62,-3.02
3.141e-02,-3.86,-3.94
3.143e-02,-3.58,-3.5
3.144e-02,-3.78,-4.06
3.145e-02,-3.82,-3.62
3.147e-02,-3.9,-4.22
3.148e-02,-3.98,-3.54
3.149e-02,-3.78,-4.18
3.150e-02,-3.58,-3.1
3.152e-02,-3.74,-4.02
3.153e-02,-3.86,-3.5
3.154e-02,-3.78,-3.98
3.156e-02,-3.5,-3.38
3.157e-02,-3.9,-4.42
3.158e-02,-4.1,-3.54
3.159e-02,-4.14,-4.46
3.161e-02,-3.9,-3.74
3.162e-02,-3.86,-4.3
3.163e-02,-3.78,-3.58
3.164e-02,-4.1,-4.26
3.166e-02,-3.94,-3.58
3.167e-02,-3.74,-4.06
3.168e-02,-3.82,-3.54
3.170e-02,-4.02,-4.3
3.171e-02,-4.14,-3.62
3.172e-02,-3.98,-4.26
3.173e-02,-3.98,-3.9
3.175e-02,-3.74,-4.1
3.176e-02,-3.94,-3.62
3.177e-02,-4.1,-4.22
3.179e-02,-4.1,-3.86
3.180e-02,-3.82,-4.38
3.181e-02,-4.06,-3.62
3.182e-02,-4.1,-4.26
3.184e-02,-4.02,-3.62
3.185e-02,-3.78,-3.94
3.186e-02,-3.58,-3.5
3.188e-02,-3.9,-4.5
3.189e-02,-4.38,-3.74
3.190e-02,-3.86,-4.34
3.191e-02,-3.9,-3.74
3.193e-02,-4.26,-4.46
3.194e-02,-3.98,-3.74
3.195e-02,-4.14,-4.38
3.196e-02,-4.18,-4.02
3.198e-02,-4.02,-4.5
3.199e-02,-4.1,-3.9
3.200e-02,-4.38,-4.5
3.202e-02,-3.98,-3.86
3.203e-02,-3.86,-4.18
3.204e-02,-3.98,-3.78
3.205e-02,-4.34,-4.46
3.207e-02,-4.06,-3.98
3.208e-02,-4.46,-4.54
3.209e-02,-3.9,-3.74
3.211e-02,-4.46,-4.86
3.212e-02,-4.62,-4.06
3.213e-02,-4.14,-4.58
3.214e-02,-4.22,-3.9
3.216e-02,-4.3,-4.62
3.217e-02,-4.3,-4.14
3.218e-02,-3.94,-4.34
3.220e-02,-4.02,-3.66
3.221e-02,-4.34,-4.42
3.222e-02,-3.98,-3.9
3.223e-02,-4.18,-4.7
3.225e-02,-4.34,-3.94
3.226e-02,-4.42,-4.74
3.227e-02,-4.14,-4.06
3.228e-02,-4.54,-4.98
3.230e-02,-4.42,-4.02
3.231e-02,-3.98,-4.46
3.232e-02,-4.34,-3.86
3.234e-02,-4.02,-4.62
3.235e-02,-4.3,-3.74
3.236e-02,-4.06,-4.42
3.237e-02,-4.26,-3.7
3.239e-02,-3.9,-4.42
3.240e-02,-4.34,-3.82
3.241e-02,-3.9,-4.58
3.243e-02,-3.78,-3.58
3.244e-02,-4.26,-4.66
3.245e-02,-4.54,-3.66
3.246e-02,-4.38,-4.5
3.248e-02,-4.14,-3.94
3.249e-02,-4.38,-4.5
3.250e-02,-3.94,-3.86
3.252e-02,-3.78,-4.5
3.253e-02,-4.18,-3.5
3.254e-02,-4.18,-4.42
3.255e-02,-3.98,-3.82
3.257e-02,-4.42,-4.58
3.258e-02,-4.06,-3.78
3.259e-02,-4.22,-4.62
3.260e-02,-4.22,-3.7
3.262e-02,-4.3,-4.74
3.263e-02,-4.42,-4.18
3.264e-02,-4.02,-4.58
3.266e-02,-4.1,-3.7
3.267e-02,-4.42,-4.62
3.268e-02,-4.02,-3.82
3.269e-02,-4.1,-4.3
3.271e-02,-3.98,-3.78
3.272e-02,-4.14,-4.42
3.273e-02,-4.3,-3.78
3.275e-02,-4.14,-4.38
3.276e-02,-3.98,-3.82
3.277e-02,-4.42,-4.66
3.278e-02,-4.1,-4.02
3.280e-02,-4.5,-4.58
3.281e-02,-4.14,-3.98
3.282e-02,-3.98,-4.42
3.284e-02,-3.82,-3.7
3.285e-02,-3.9,-4.18
3.286e-02,-3.78,-3.62
3.287e-02,-4.06,-4.42
3.289e-02,-4.02,-3.7
3.290e-02,-4.02,-4.5
3.291e-02,-4.34,-3.94
3.292e-02,-3.86,-4.38
3.294e-02,-3.98,-3.74
3.295e-02,-3.78,-4.22
3.296e-02,-3.9,-3.7
3.298e-02,-4.22,-4.42
3.299e-02,-4.26,-3.86
3.300e-02,-3.82,-4.26
3.301e-02,-4.1,-3.54
3.303e-02,-4.06,-4.26
3.304e-02,-4.06,-3.94
3.305e-02,-4.06,-4.34
3.307e-02,-4.18,-3.62
3.308e-02,-4.18,-4.5
3.309e-02,-4.42,-3.54
3.310e-02,-4.26,-4.42
3.312e-02,-4.34,-4.02
3.313e-02,-3.78,-4.5
3.314e-02,-4.46,-3.7
3.316e-02,-3.9,-4.14
3.317e-02,-3.66,-3.62
3.318e-02,-3.78,-4.22
3.319e-02,-3.94,-3.62
3.321e-02,-4.14,-4.42
3.322e-02,-4.34,-3.82
3.323e-02,-4.1,-4.42
3.324e-02,-3.9,-3.82
3.326e-02,-4.18,-4.54
3.327e-02,-4.26,-3.98
3.328e-02,-4.18,-4.42
3.330e-02,-4.14,-3.94
3.331e-02,-4.26,-4.62
3.332e-02,-4.34,-4.06
3.333e-02,-4.26,-4.42
3.335e-02,-4.22,-3.9
3.336e-02,-3.9,-4.46
3.337e-02,-4.3,-3.82
3.339e-02,-4.3,-4.5
3.340e-02,-3.74,-3.5
3.341e-02,-4.38,-4.46
3.342e-02,-4.14,-3.7
3.344e-02,-4.1,-4.22
3.345e-02,-3.86,-3.66
3.346e-02,-4.1,-4.26
3.348e-02,-3.74,-3.42
3.349e-02,-3.66,-3.9
3.350e-02,-3.74,-3.46
3.351e-02,-4.02,-4.18
3.353e-02,-4.02,-3.74
3.354e-02,-3.82,-4.22
3.355e-02,-3.86,-3.74
3.356e-02,-4.14,-4.38
3.358e-02,-4.1,-4.02
3.359e-02,-4.02,-4.34
3.360e-02,-4.02,-3.9
3.362e-02,-4.54,-4.7
3.363e-02,-4.14,-3.9
3.364e-02,-4.1,-4.54
3.365e-02,-3.86,-3.7
3.367e-02,-4.1,-4.42
3.368e-02,-3.82,-3.7
3.369e-02,-4.02,-4.14
3.371e-02,-4.06,-3.82
3.372e-02,-3.7,-4.06
3.373e-02,-3.94,-3.62
3.374e-02,-4.22,-4.46
3.376e-02,-4.02,-3.78
3.377e-02,-4.42,-4.5
3.378e-02,-4.02,-3.9
3.380e-02,-3.9,-4.42
3.381e-02,-4.34,-3.82
3.382e-02,-4.06,-4.26
3.383e-02,-3.98,-3.9
3.385e-02,-3.98,-4.38
3.386e-02,-4.14,-3.86
3.387e-02,-3.9,-4.06
3.388e-02,-3.74,-3.66
3.390e-02,-4.18,-4.42
3.391e-02,-4.34,-3.66
3.392e-02,-3.94,-4.7
3.394e-02,-4.3,-3.86
3.395e-02,-4.26,-4.42
3.396e-02,-4.1,-3.9
3.397e-02,-3.86,-4.34
3.399e-02,-3.98,-3.7
3.400e-02,-4.06,-4.14
3.401e-02,-3.7,-3.5
3.403e-02,-4.1,-4.34
3.404e-02,-4.26,-3.58
3.405e-02,-4.26,-4.46
3.406e-02,-3.78,-3.7
3.408e-02,-3.98,-4.38
3.409e-02,-4.18,-3.86
3.410e-02,-4.18,-4.5
3.412e-02,-4.42,-3.86
3.413e-02,-4.3,-4.38
3.414e-02,-3.94,-3.82
3.415e-02,-4.06,-4.3
3.417e-02,-4.18,-3.82
3.418e-02,-4.02,-4.14
3.419e-02,-4.02,-3.54
3.420e-02,-3.78,-4.18
3.422e-02,-4.1,-3.62
3.423e-02,-4.14,-4.26
3.424e-02,-3.98,-3.9
3.426e-02,-4.22,-4.58
3.427e-02,-4.18,-3.9
3.428e-02,-4.34,-4.42
3.429e-02,-4.14,-3.94
3.431e-02,-3.74,-4.3
3.432e-02,-4.18,-3.62
3.433e-02,-4.18,-4.3
3.435e-02,-3.82,-3.66
3.436e-02,-3.9,-4.26
3.437e-02,-4.06,-3.82
3.438e-02,-4.22,-4.38
3.440e-02,-4.18,-3.9
3.441e-02,-4.18,-4.46
3.442e-02,-4.38,-3.82
3.444e-02,-3.86,-4.18
3.445e-02,-4.02,-3.78
3.446e-02,-4.14,-4.5
3.447e-02,-3.54,-3.42
3.449e-02,-4.1,-4.46
3.450e-02,-4.38,-3.58
3.451e-02,-4.02,-4.22
3.452e-02,-3.82,-3.7
3.454e-02,-4.06,-4.42
3.455e-02,-3.98,-3.7
3.456e-02,-4.22,-4.62
3.458e-02,-4.54,-3.82
3.459e-02,-4.42,-4.5
3.460e-02,-4.3,-3.98
3.461e-02,-4.42,-4.58
3.463e-02,-4.42,-4.06
3.464e-02,-4.18,-4.3
3.465e-02,-4.06,-3.9
3.467e-02,-4.38,-4.46
3.468e-02,-3.78,-3.66
3.469e-02,-3.86,-4.42
3.470e-02,-4.06,-3.74
3.472e-02,-3.98,-4.42
3.473e-02,-3.86,-3.62
3.474e-02,-4.02,-4.42
3.476e-02,-4.3,-3.62
3.477e-02,-4.34,-4.5
3.478e-02,-4.18,-3.98
3.479e-02,-4.02,-4.46
3.481e-02,-4.34,-3.9
3.482e-02,-3.9,-4.26
3.483e-02,-3.78,-3.62
3.484e-02,-3.7,-4.26
3.486e-02,-4.14,-3.62
3.487e-02,-3.98,-4.26
3.488e-02,-4.18,-3.78
3.490e-02,-4.06,-4.22
3.491e-02,-4.02,-3.74
3.492e-02,-3.9,-4.42
3.493e-02,-4.34,-3.74
3.495e-02,-3.98,-4.34
3.496e-02,-3.98,-3.78
3.497e-02,-4.18,-4.3
3.499e-02,-3.98,-3.86
3.500e-02,-3.62,-4.42
3.501e-02,-4.02,-3.58
3.502e-02,-4.18,-4.5
3.504e-02,-4.26,-3.66
3.505e-02,-3.98,-4.5
3.506e-02,-4.1,-3.7
3.508e-02,-4.3,-4.5
3.509e-02,-4.26,-4.14
3.510e-02,-3.98,-4.26
3.511e-02,-3.9,-3.82
3.513e-02,-4.1,-4.38
3.514e-02,-4.06,-3.86
3.515e-02,-4.5,-4.7
3.516e-02,-3.78,-3.7
3.518e-02,-3.98,-4.26
3.519e-02,-3.86,-3.58
3.520e-02,-4.06,-4.46
3.522e-02,-3.9,-3.62
3.523e-02,-4.3,-4.38
3.524e-02,-3.9,-3.58
3.525e-02,-4.38,-4.62
3.527e-02,-4.42,-3.78
3.528e-02,-4.1,-4.3
3.529e-02,-3.58,-3.54
3.531e-02,-4.38,-4.54
3.532e-02,-3.98,-3.78
3.533e-02,-4.3,-4.42
3.534e-02,-4.14,-3.9
3.536e-02,-4.02,-4.38
3.537e-02,-4.22,-3.9
3.538e-02,-4.1,-4.42
3.540e-02,-4.18,-3.74
3.541e-02,-4.3,-4.54
3.542e-02,-3.74,-3.66
3.543e-02,-4.18,-4.26
3.545e-02,-4.06,-3.78
3.546e-02,-4.1,-4.34
3.547e-02,-4.1,-3.62
3.548e-02,-3.86,-4.42
3.550e-02,-4.26,-3.7
3.551e-02,-4.18,-4.3
3.552e-02,-3.74,-3.58
3.554e-02,-4.18,-4.46
3.555e-02,-4.3,-3.82
3.556e-02,-4.26,-4.5
3.557e-02,-4.42,-3.94
3.559e-02,-4.3,-4.46
3.560e-02,-4.02,-3.94
3.561e-02,-4.22,-4.66
3.563e-02,-4.5,-4.1
3.564e-02,-4.06,-4.22
3.565e-02,-3.94,-3.74
3.566e-02,-4.06,-4.18
3.568e-02,-4.02,-3.74
3.569e-02,-3.78,-4.22
3.570e-02,-4.14,-3.7
3.572e-02,-4.38,-4.5
3.573e-02,-4.42,-3.86
3.574e-02,-4.1,-4.5
3.575e-02,-3.98,-3.9
3.577e-02,-4.26,-4.54
3.578e-02,-4.02,-3.94
3.579e-02,-4.3,-4.42
3.580e-02,-3.94,-3.34
3.582e-02,-3.78,-4.22
3.583e-02,-3.98,-3.34
3.584e-02,-3.98,-4.26
3.586e-02,-4.1,-3.86
3.587e-02,-4.1,-4.3
3.588e-02,-4.22,-3.9
3.589e-02,-4.34,-4.46
3.591e-02,-3.86,-3.78
3.592e-02,-4.38,-4.46
3.593e-02,-3.78,-3.66
3.595e-02,-4.02,-4.14
3.596e-02,-3.74,-3.66
3.597e-02,-3.86,-4.1
3.598e-02,-3.74,-3.66
3.600e-02,-3.98,-4.38
3.601e-02,-4.3,-3.78
3.602e-02,-4.06,-4.46
3.604e-02,-4.3,-3.82
3.605e-02,-4.22,-4.5
3.606e-02,-4.18,-4.02
3.607e-02,-4.22,-4.5
3.609e-02,-4.18,-3.82
3.610e-02,-3.82,-4.26
3.611e-02,-4.18,-3.58
3.612e-02,-3.86,-4.46
3.614e-02,-4.26,-3.7
3.615e-02,-3.9,-4.22
3.616e-02,-4.02,-3.62
3.618e-02,-3.9,-4.14
3.619e-02,-3.62,-3.54
3.620e-02,-3.9,-4.34
3.621e-02,-4.18,-3.74

