Model,DPO2002B
Firmware Version,1.52

Point Format,Y,
Horizontal Units,S,
Horizontal Scale,0.01,
Sample Interval,3.2e-05,
Filter Frequency,290000,
Record Length,3124,
Gating,0.0% to 100.0%,
Probe Attenuation,10,
Vertical Units,V,
Vertical Offset,0,
Vertical Scale,2,
Label,,
TIME,CH1,CH1 Peak Detect
-9.400e-03,-4.04,-4.52
-9.368e-03,-4.2,-3.8
-9.336e-03,-4.36,-4.44
-9.304e-03,-3.96,-3.8
-9.272e-03,-4.04,-4.68
-9.240e-03,-4.2,-3.8
-9.208e-03,-4.44,-4.6
-9.176e-03,-4.2,-3.96
-9.144e-03,-3.72,-4.52
-9.112e-03,-3.8,-3.64
-9.080e-03,-4.04,-4.52
-9.048e-03,-4.2,-3.64
-9.016e-03,-4.44,-4.68
-8.984e-03,-4.44,-3.88
-8.952e-03,-3.88,-4.44
-8.920e-03,-3.96,-3.48
-8.888e-03,-4.36,-4.52
-8.856e-03,-3.96,-3.56
-8.824e-03,-4.36,-4.52
-8.792e-03,-3.88,-3.48
-8.760e-03,-4.12,-4.68
-8.728e-03,-4.12,-3.8
-8.696e-03,-4.12,-4.68
-8.664e-03,-4.2,-3.96
-8.632e-03,-4.2,-4.44
-8.600e-03,-4.2,-3.72
-8.568e-03,-4.12,-4.44
-8.536e-03,-4.28,-3.56
-8.504e-03,-4.04,-4.28
-8.472e-03,-4.12,-3.48
-8.440e-03,-4.28,-4.44
-8.408e-03,-4.2,-3.88
-8.376e-03,-4.36,-4.68
-8.344e-03,-4.04,-3.8
-8.312e-03,-4.44,-4.6
-8.280e-03,-4.28,-3.96
-8.248e-03,-4.04,-4.6
-8.216e-03,-4.04,-3.8
-8.184e-03,-4.44,-4.68
-8.152e-03,-4.04,-3.72
-8.120e-03,-3.88,-4.44
-8.088e-03,-4.12,-3.56
-8.056e-03,-4.28,-4.44
-8.024e-03,-4.04,-3.88
-7.992e-03,-3.8,-4.28
-7.960e-03,-3.96,-3.56
-7.928e-03,-4.04,-4.68
-7.896e-03,-4.2,-3.64
-7.864e-03,-4.28,-4.6
-7.832e-03,-3.64,-3.56
-7.800e-03,-4.12,-4.6
-7.768e-03,-4.28,-3.64
-7.736e-03,-4.44,-4.6
-7.704e-03,-4.36,-3.8
-7.672e-03,-4.2,-4.52
-7.640e-03,-4.04,-3.64
-7.608e-03,-4.2,-4.6
-7.576e-03,-4.04,-3.72
-7.544e-03,-4.44,-4.84
-7.512e-03,-4.76,-3.88
-7.480e-03,-4.04,-4.52
-7.448e-03,-3.96,-3.8
-7.416e-03,-4.28,-4.92
-7.384e-03,-4.52,-3.96
-7.352e-03,-4.36,-4.84
-7.320e-03,-3.96,-3.88
-7.288e-03,-4.2,-4.76
-7.256e-03,-4.36,-3.96
-7.224e-03,-3.88,-4.92
-7.192e-03,-3.96,-3.64
-7.160e-03,-3.8,-4.44
-7.128e-03,-3.88,-3.64
-7.096e-03,-3.96,-4.52
-7.064e-03,-4.04,-3.8
-7.032e-03,-4.2,-4.68
-7.000e-03,-4.2,-3.64
-6.968e-03,-4.36,-4.68
-6.936e-03,-4.36,-3.64
-6.904e-03,-4.12,-4.76
-6.872e-03,-4.28,-3.88
-6.840e-03,-4.44,-4.6
-6.808e-03,-4.28,-3.96
-6.776e-03,-4.12,-4.6
-6.744e-03,-4.2,-3.64
-6.712e-03,-3.88,-4.76
-6.680e-03,-4.2,-3.8
-6.648e-03,-4.36,-4.68
-6.616e-03,-3.88,-3.64
-6.584e-03,-4.12,-4.68
-6.552e-03,-4.36,-3.96
-6.520e-03,-4.12,-4.6
-6.488e-03,-3.96,-3.72
-6.456e-03,-4.2,-4.6
-6.424e-03,-4.12,-3.96
-6.392e-03,-3.8,-4.68
-6.360e-03,-4.52,-3.56
-6.328e-03,-4.2,-4.52
-6.296e-03,-3.72,-3.56
-6.264e-03,-3.88,-4.68
-6.232e-03,-4.2,-3.72
-6.200e-03,-4.52,-4.68
-6.168e-03,-3.96,-3.72
-6.136e-03,-4.12,-4.44
-6.104e-03,-4.04,-3.8
-6.072e-03,-4.36,-4.68
-6.040e-03,-4.36,-3.88
-6.008e-03,-4.2,-4.6
-5.976e-03,-4.04,-3.56
-5.944e-03,-4.12,-4.68
-5.912e-03,-4.36,-3.88
-5.880e-03,-3.96,-4.44
-5.848e-03,-4.2,-3.72
-5.816e-03,-3.96,-4.76
-5.784e-03,-4.6,-3.72
-5.752e-03,-3.96,-4.68
-5.720e-03,-4.28,-3.8
-5.688e-03,-4.12,-4.6
-5.656e-03,-3.96,-3.8
-5.624e-03,-4.04,-4.68
-5.592e-03,-4.28,-3.56
-5.560e-03,-4.28,-4.76
-5.528e-03,-4.36,-3.8
-5.496e-03,-3.96,-4.68
-5.464e-03,-4.44,-3.64
-5.432e-03,-4.2,-4.44
-5.400e-03,-4.04,-3.88
-5.368e-03,-4.28,-4.68
-5.336e-03,-4.12,-3.8
-5.304e-03,-4.44,-4.52
-5.272e-03,-3.8,-3.72
-5.240e-03,-4.2,-4.84
-5.208e-03,-4.12,-3.96
-5.176e-03,-4.04,-4.6
-5.144e-03,-4.2,-3.72
-5.112e-03,-4.2,-4.6
-5.080e-03,-4.2,-3.88
-5.048e-03,-4.28,-4.52
-5.016e-03,-3.88,-3.56
-4.984e-03,-4.12,-4.44
-4.952e-03,-4.12,-3.88
-4.920e-03,-4.68,-4.76
-4.888e-03,-4.36,-3.72
-4.856e-03,-4.6,-4.76
-4.824e-03,-4.2,-3.8
-4.792e-03,-4.44,-4.6
-4.760e-03,-4.28,-3.8
-4.728e-03,-3.88,-4.6
-4.696e-03,-4.12,-3.64
-4.664e-03,-4.2,-4.52
-4.632e-03,-4.04,-3.8
-4.600e-03,-3.96,-4.92
-4.568e-03,-3.96,-3.72
-4.536e-03,-4.52,-4.76
-4.504e-03,-3.8,-3.56
-4.472e-03,-4.2,-4.6
-4.440e-03,-4.36,-3.56
-4.408e-03,-4.2,-4.76
-4.376e-03,-4.44,-4.04
-4.344e-03,-4.36,-4.52
-4.312e-03,-3.88,-3.64
-4.280e-03,-4.12,-4.52
-4.248e-03,-3.88,-3.8
-4.216e-03,-4.04,-4.68
-4.184e-03,-4.6,-3.72
-4.152e-03,-4.04,-4.6
-4.120e-03,-4.2,-3.72
-4.088e-03,-4.28,-4.6
-4.056e-03,-4.04,-3.96
-4.024e-03,-4.44,-4.68
-3.992e-03,-4.36,-3.8
-3.960e-03,-3.88,-4.68
-3.928e-03,-4.28,-3.8
-3.896e-03,-4.28,-4.68
-3.864e-03,-3.96,-3.64
-3.832e-03,-3.8,-4.52
-3.800e-03,-4.12,-3.56
-3.768e-03,-4.28,-4.76
-3.736e-03,-4.52,-3.64
-3.704e-03,-4.76,-4.92
-3.672e-03,-3.96,-3.72
-3.640e-03,-3.96,-4.68
-3.608e-03,-4.04,-3.56
-3.576e-03,-4.12,-4.68
-3.544e-03,-4.12,-3.8
-3.512e-03,-4.04,-4.76
-3.480e-03,-4.36,-3.96
-3.448e-03,-4.12,-4.68
-3.416e-03,-4.2,-3.8
-3.384e-03,-4.2,-4.52
-3.352e-03,-4.44,-3.72
-3.320e-03,-4.04,-4.76
-3.288e-03,-4.44,-3.8
-3.256e-03,-4.44,-4.92
-3.224e-03,-4.04,-3.88
-3.192e-03,-4.68,-4.84
-3.160e-03,-3.88,-3.8
-3.128e-03,-4.44,-4.52
-3.096e-03,-4.36,-3.88
-3.064e-03,-4.36,-4.68
-3.032e-03,-4.04,-3.64
-3.000e-03,-4.04,-4.44
-2.968e-03,-3.96,-3.64
-2.936e-03,-4.36,-4.68
-2.904e-03,-4.2,-3.56
-2.872e-03,-4.12,-4.36
-2.840e-03,-3.88,-3.56
-2.808e-03,-3.88,-4.52
-2.776e-03,-4.12,-3.64
-2.744e-03,-4.52,-4.6
-2.712e-03,-3.96,-3.8
-2.680e-03,-4.36,-4.6
-2.648e-03,-4.2,-3.8
-2.616e-03,-4.28,-4.52
-2.584e-03,-4.12,-3.8
-2.552e-03,-4.12,-4.52
-2.520e-03,-4.2,-3.96
-2.488e-03,-3.88,-4.6
-2.456e-03,-4.28,-3.4
-2.424e-03,-4.12,-4.76
-2.392e-03,-4.52,-3.88
-2.360e-03,-3.96,-4.36
-2.328e-03,-3.72,-3.64
-2.296e-03,-4.28,-4.84
-2.264e-03,-3.88,-3.72
-2.232e-03,-4.2,-4.6
-2.200e-03,-4.12,-3.72
-2.168e-03,-4.04,-4.52
-2.136e-03,-3.96,-3.72
-2.104e-03,-4.2,-4.92
-2.072e-03,-4.36,-4.04
-2.040e-03,-4.04,-4.6
-2.008e-03,-4.04,-3.48
-1.976e-03,-4.2,-4.6
-1.944e-03,-4.2,-3.48
-1.912e-03,-4.04,-4.6
-1.880e-03,-4.2,-3.64
-1.848e-03,-4.44,-4.68
-1.816e-03,-4.12,-3.72
-1.784e-03,-4.2,-4.76
-1.752e-03,-4.2,-3.64
-1.720e-03,-4.2,-4.68
-1.688e-03,-4.52,-3.8
-1.656e-03,-4.04,-4.68
-1.624e-03,-3.96,-3.72
-1.592e-03,-4.36,-4.52
-1.560e-03,-4.12,-3.88
-1.528e-03,-4.44,-4.52
-1.496e-03,-4.2,-3.8
-1.464e-03,-4.28,-4.76
-1.432e-03,-4.28,-3.88
-1.400e-03,-3.88,-4.6
-1.368e-03,-4.36,-3.72
-1.336e-03,-4.12,-4.84
-1.304e-03,-4.28,-3.56
-1.272e-03,-4.36,-4.68
-1.240e-03,-4.28,-3.96
-1.208e-03,-4.2,-4.68
-1.176e-03,-3.96,-3.56
-1.144e-03,-4.28,-4.6
-1.112e-03,-4.28,-3.8
-1.080e-03,-4.44,-4.6
-1.048e-03,-4.12,-3.72
-1.016e-03,-4.12,-4.52
-9.840e-04,-4.04,-3.48
-9.520e-04,-4.36,-4.84
-9.200e-04,-4.04,-3.8
-8.880e-04,-3.96,-4.68
-8.560e-04,-4.12,-3.72
-8.240e-04,-4.28,-4.68
-7.920e-04,-4.36,-3.96
-7.600e-04,-4.12,-4.68
-7.280e-04,-4.2,-3.8
-6.960e-04,-4.12,-4.44
-6.640e-04,-4.36,-3.88
-6.320e-04,-4.2,-4.52
-6.000e-04,-4.28,-3.8
-5.680e-04,-4.12,-4.6
-5.360e-04,-3.64,-3.4
-5.040e-04,-3.96,-4.6
-4.720e-04,-4.44,-3.24
-4.400e-04,-4.6,-4.84
-4.080e-04,-4.12,-3.88
-3.760e-04,-4.12,-4.68
-3.440e-04,-4.12,-3.72
-3.120e-04,-3.64,-4.68
-2.800e-04,-4.36,-3.56
-2.480e-04,-4.28,-4.52
-2.160e-04,-4.28,-3.88
-1.840e-04,-4.2,-4.44
-1.520e-04,-3.96,-3.72
-1.200e-04,-4.2,-4.6
-8.800e-05,-4.28,-3.88
-5.600e-05,-4.2,-14.12
-2.400e-05,6.2,6.2
8.000e-06,-13.64,-14.12
4.000e-05,-3.64,6.2
7.200e-05,-3.88,-4.36
1.040e-04,-4.2,-3.24
1.360e-04,-4.12,-4.36
1.680e-04,-3.96,-3.64
2.000e-04,-4.2,-4.68
2.320e-04,-4.52,-3.56
2.640e-04,-4.36,-4.52
2.960e-04,-3.88,-3.8
3.280e-04,-4.28,-4.68
3.600e-04,-4.04,-3.8
3.920e-04,-4.28,-4.84
4.240e-04,-4.52,-3.56
4.560e-04,-3.88,-4.44
4.880e-04,-4.12,-3.72
5.200e-04,-4.28,-4.68
5.520e-04,-3.96,-3.8
5.840e-04,-4.04,-4.68
6.160e-04,-4.28,-3.64
6.480e-04,-4.36,-4.6
6.800e-04,-4.36,-3.64
7.120e-04,-4.2,-4.6
7.440e-04,-4.28,-3.8
7.760e-04,-3.96,-4.6
8.080e-04,-4.04,-3.56
8.400e-04,-4.04,-4.68
8.720e-04,-4.12,-3.72
9.040e-04,-3.96,-4.68
9.360e-04,-3.8,-3.48
9.680e-04,-3.56,-4.68
1.000e-03,-3.96,-3.48
1.032e-03,-4.28,-4.68
1.064e-03,-4.2,-3.8
1.096e-03,-4.28,-4.6
1.128e-03,-4.28,-3.88
1.160e-03,-4.2,-4.68
1.192e-03,-4.52,-3.64
1.224e-03,-4.12,-4.6
1.256e-03,-4.2,-3.88
1.288e-03,-3.96,-4.52
1.320e-03,-3.64,-3.48
1.352e-03,-4.28,-4.84
1.384e-03,-4.44,-3.88
1.416e-03,-4.44,-4.76
1.448e-03,-4.44,-3.88
1.480e-03,-4.04,-4.68
1.512e-03,-4.6,-3.72
1.544e-03,-4.36,-4.92
1.576e-03,-4.52,-3.88
1.608e-03,-4.28,-4.44
1.640e-03,-3.88,-3.72
1.672e-03,-4.36,-4.84
1.704e-03,-4.2,-3.96
1.736e-03,-4.12,-4.68
1.768e-03,-3.96,-3.56
1.800e-03,-4.52,-4.84
1.832e-03,-4.04,-3.4
1.864e-03,-4.2,-4.68
1.896e-03,-4.04,-3.8
1.928e-03,-3.88,-4.44
1.960e-03,-3.72,-3.48
1.992e-03,-4.28,-4.76
2.024e-03,-4.2,-3.8
2.056e-03,-4.04,-4.68
2.088e-03,-4.04,-3.72
2.120e-03,-4.12,-4.6
2.152e-03,-3.96,-3.64
2.184e-03,-4.04,-4.68
2.216e-03,-4.28,-3.64
2.248e-03,-4.12,-4.36
2.280e-03,-4.04,-3.56
2.312e-03,-4.2,-4.44
2.344e-03,-4.36,-3.64
2.376e-03,-4.52,-4.76
2.408e-03,-4.36,-3.72
2.440e-03,-4.12,-4.92
2.472e-03,-3.96,-3.72
2.504e-03,-4.44,-4.92
2.536e-03,-4.12,-3.88
2.568e-03,-3.8,-4.92
2.600e-03,-4.36,-3.72
2.632e-03,-4.04,-4.6
2.664e-03,-4.2,-3.72
2.696e-03,-4.04,-4.6
2.728e-03,-4.36,-3.88
2.760e-03,-4.2,-4.6
2.792e-03,-4.28,-3.72
2.824e-03,-4.36,-4.6
2.856e-03,-4.36,-3.88
2.888e-03,-4.12,-4.52
2.920e-03,-4.12,-3.72
2.952e-03,-3.8,-4.44
2.984e-03,-4.28,-3.56
3.016e-03,-4.04,-4.52
3.048e-03,-4.36,-3.64
3.080e-03,-3.96,-4.52
3.112e-03,-3.96,-3.64
3.144e-03,-4.04,-4.44
3.176e-03,-4.2,-3.72
3.208e-03,-4.12,-4.52
3.240e-03,-4.28,-3.56
3.272e-03,-4.2,-4.52
3.304e-03,-4.12,-3.56
3.336e-03,-4.2,-4.68
3.368e-03,-4.52,-3.96
3.400e-03,-4.04,-4.68
3.432e-03,-4.04,-3.8
3.464e-03,-4.04,-4.6
3.496e-03,-4.28,-3.72
3.528e-03,-4.44,-4.84
3.560e-03,-4.2,-3.64
3.592e-03,-4.36,-4.6
3.624e-03,-3.96,-3.64
3.656e-03,-4.36,-4.6
3.688e-03,-4.2,-3.72
3.720e-03,-4.2,-4.6
3.752e-03,-3.96,-3.64
3.784e-03,-4.12,-4.6
3.816e-03,-4.28,-3.88
3.848e-03,-4.04,-4.6
3.880e-03,-4.28,-3.64
3.912e-03,-4.12,-4.36
3.944e-03,-3.88,-3.56
3.976e-03,-4.12,-4.76
4.008e-03,-4.28,-3.88
4.040e-03,-4.04,-4.68
4.072e-03,-4.04,-3.64
4.104e-03,-4.12,-4.36
4.136e-03,-4.12,-3.64
4.168e-03,-4.04,-4.68
4.200e-03,-4.36,-3.8
4.232e-03,-4.2,-4.6
4.264e-03,-4.04,-3.56
4.296e-03,-4.2,-4.6
4.328e-03,-4.44,-3.48
4.360e-03,-4.2,-4.76
4.392e-03,-4.28,-3.88
4.424e-03,-4.04,-4.76
4.456e-03,-4.44,-3.56
4.488e-03,-4.12,-4.76
4.520e-03,-4.2,-3.96
4.552e-03,-4.36,-4.68
4.584e-03,-3.56,-3.4
4.616e-03,-3.88,-4.84
4.648e-03,-4.68,-3.72
4.680e-03,-4.68,-4.84
4.712e-03,-4.36,-3.88
4.744e-03,-4.28,-4.6
4.776e-03,-4.44,-3.88
4.808e-03,-4.44,-4.92
4.840e-03,-4.04,-3.8
4.872e-03,-4.2,-4.52
4.904e-03,-4.12,-3.96
4.936e-03,-4.04,-4.76
4.968e-03,-4.52,-3.72
5.000e-03,-4.28,-4.44
5.032e-03,-4.12,-3.64
5.064e-03,-4.2,-4.52
5.096e-03,-4.28,-3.8
5.128e-03,-4.28,-4.68
5.160e-03,-4.2,-3.8
5.192e-03,-4.12,-4.52
5.224e-03,-4.28,-3.56
5.256e-03,-3.96,-4.52
5.288e-03,-4.2,-3.64
5.320e-03,-4.04,-4.68
5.352e-03,-4.12,-3.8
5.384e-03,-4.04,-4.52
5.416e-03,-4.36,-3.56
5.448e-03,-4.28,-4.92
5.480e-03,-4.04,-3.64
5.512e-03,-4.36,-4.68
5.544e-03,-4.28,-3.96
5.576e-03,-4.04,-4.44
5.608e-03,-4.36,-3.72
5.640e-03,-3.96,-4.52
5.672e-03,-4.2,-3.72
5.704e-03,-4.12,-4.52
5.736e-03,-4.12,-3.56
5.768e-03,-4.12,-4.36
5.800e-03,-4.04,-3.64
5.832e-03,-4.04,-4.68
5.864e-03,-4.36,-3.88
5.896e-03,-4.2,-4.44
5.928e-03,-4.04,-3.8
5.960e-03,-4.12,-4.68
5.992e-03,-4.28,-3.88
6.024e-03,-4.2,-4.76
6.056e-03,-4.04,-3.8
6.088e-03,-4.12,-4.52
6.120e-03,-4.2,-3.8
6.152e-03,-3.96,-4.6
6.184e-03,-4.2,-3.88
6.216e-03,-4.04,-4.44
6.248e-03,-3.96,-3.48
6.280e-03,-4.04,-4.52
6.312e-03,-4.04,-3.64
6.344e-03,-4.2,-4.84
6.376e-03,-4.68,-3.64
6.408e-03,-4.12,-4.52
6.440e-03,-4.36,-3.72
6.472e-03,-4.36,-4.76
6.504e-03,-4.52,-3.8
6.536e-03,-3.96,-4.6
6.568e-03,-4.12,-3.56
6.600e-03,-3.96,-4.76
6.632e-03,-4.44,-3.32
6.664e-03,-4.44,-4.92
6.696e-03,-4.04,-3.64
6.728e-03,-3.96,-4.6
6.760e-03,-4.44,-3.64
6.792e-03,-4.04,-4.76
6.824e-03,-4.28,-3.8
6.856e-03,-4.44,-4.76
6.888e-03,-4.04,-3.72
6.920e-03,-3.8,-4.52
6.952e-03,-4.28,-3.64
6.984e-03,-4.36,-4.84
7.016e-03,-4.68,-3.8
7.048e-03,-4.04,-4.6
7.080e-03,-3.8,-3.72
7.112e-03,-3.96,-4.76
7.144e-03,-4.52,-3.72
7.176e-03,-4.12,-4.68
7.208e-03,-4.04,-3.72
7.240e-03,-3.96,-4.44
7.272e-03,-3.96,-3.8
7.304e-03,-4.12,-4.52
7.336e-03,-4.12,-3.8
7.368e-03,-3.96,-4.44
7.400e-03,-4.28,-3.56
7.432e-03,-4.2,-4.6
7.464e-03,-4.04,-3.8
7.496e-03,-4.2,-4.68
7.528e-03,-3.96,-3.8
7.560e-03,-4.04,-4.28
7.592e-03,-3.96,-3.8
7.624e-03,-4.2,-4.68
7.656e-03,-4.36,-3.72
7.688e-03,-4.2,-4.68
7.720e-03,-4.28,-3.64
7.752e-03,-4.2,-4.52
7.784e-03,-4.2,-3.56
7.816e-03,-4.2,-4.68
7.848e-03,-4.04,-3.8
7.880e-03,-4.36,-4.52
7.912e-03,-4.12,-3.4
7.944e-03,-4.28,-4.52
7.976e-03,-3.88,-3.72
8.008e-03,-3.8,-4.68
8.040e-03,-4.04,-3.72
8.072e-03,-3.8,-4.52
8.104e-03,-4.36,-3.64
8.136e-03,-4.2,-4.92
8.168e-03,-4.04,-3.72
8.200e-03,-3.96,-4.36
8.232e-03,-4.12,-3.48
8.264e-03,-3.88,-4.52
8.296e-03,-3.88,-3.72
8.328e-03,-4.36,-4.6
8.360e-03,-4.04,-3.8
8.392e-03,-3.88,-4.52
8.424e-03,-4.36,-3.64
8.456e-03,-4.44,-5
8.488e-03,-4.2,-3.96
8.520e-03,-3.96,-4.76
8.552e-03,-3.96,-3.64
8.584e-03,-4.36,-4.52
8.616e-03,-3.96,-3.8
8.648e-03,-4.36,-4.68
8.680e-03,-4.52,-3.96
8.712e-03,-4.2,-4.6
8.744e-03,-4.2,-3.72
8.776e-03,-4.12,-4.6
8.808e-03,-4.36,-3.64
8.840e-03,-4.04,-4.52
8.872e-03,-4.04,-3.72
8.904e-03,-4.04,-4.6
8.936e-03,-4.28,-3.8
8.968e-03,-3.96,-4.6
9.000e-03,-4.28,-3.72
9.032e-03,-3.88,-4.44
9.064e-03,-3.8,-3.64
9.096e-03,-3.88,-4.84
9.128e-03,-4.6,-3.72
9.160e-03,-4.36,-4.44
9.192e-03,-4.04,-3.88
9.224e-03,-4.04,-4.84
9.256e-03,-4.04,-3.72
9.288e-03,-3.96,-4.6
9.320e-03,-4.04,-3.88
9.352e-03,-4.28,-4.68
9.384e-03,-4.28,-3.8
9.416e-03,-4.28,-4.76
9.448e-03,-4.04,-3.8
9.480e-03,-4.2,-4.44
9.512e-03,-4.2,-3.88
9.544e-03,-4.2,-4.6
9.576e-03,-4.28,-3.72
9.608e-03,-4.36,-4.6
9.640e-03,-3.96,-3.8
9.672e-03,-4.12,-4.44
9.704e-03,-3.96,-3.8
9.736e-03,-4.12,-4.76
9.768e-03,-4.28,-3.8
9.800e-03,-4.2,-4.6
9.832e-03,-4.04,-3.64
9.864e-03,-4.12,-4.6
9.896e-03,-4.04,-3.88
9.928e-03,-4.44,-4.76
9.960e-03,-4.12,-3.88
9.992e-03,-3.96,-4.68
1.002e-02,-3.96,-3.72
1.006e-02,-4.28,-4.52
1.009e-02,-4.28,-3.72
1.012e-02,-4.36,-4.68
1.015e-02,-4.36,-3.72
1.018e-02,-3.8,-4.52
1.022e-02,-4.04,-3.72
1.025e-02,-4.12,-4.6
1.028e-02,-4.36,-3.72
1.031e-02,-4.76,-4.84
1.034e-02,-3.72,-3.56
1.038e-02,-3.88,-4.76
1.041e-02,-4.44,-3.64
1.044e-02,-4.12,-4.68
1.047e-02,-4.28,-3.8
1.050e-02,-4.04,-4.36
1.054e-02,-4.12,-3.64
1.057e-02,-4.12,-4.92
1.060e-02,-4.76,-3.64
1.063e-02,-4.44,-4.76
1.066e-02,-4.12,-3.96
1.070e-02,-4.04,-4.6
1.073e-02,-4.28,-3.72
1.076e-02,-4.36,-4.76
1.079e-02,-4.44,-3.8
1.082e-02,-4.44,-4.6
1.086e-02,-3.88,-3.48
1.089e-02,-3.88,-4.76
1.092e-02,-4.52,-3.72
1.095e-02,-4.2,-4.6
1.098e-02,-4.2,-3.88
1.102e-02,-4.2,-4.68
1.105e-02,-4.12,-3.72
1.108e-02,-3.64,-4.6
1.111e-02,-4.52,-3.48
1.114e-02,-4.44,-4.84
1.118e-02,-4.04,-3.8
1.121e-02,-4.04,-4.52
1.124e-02,-4.28,-3.64
1.127e-02,-4.68,-4.92
1.130e-02,-4.12,-3.88
1.134e-02,-4.12,-4.68
1.137e-02,-4.52,-3.64
1.140e-02,-3.88,-4.76
1.143e-02,-4.36,-3.64
1.146e-02,-3.96,-4.6
1.150e-02,-3.96,-3.64
1.153e-02,-4.12,-4.68
1.156e-02,-4.36,-3.56
1.159e-02,-4.44,-4.84
1.162e-02,-3.96,-3.8
1.166e-02,-4.04,-4.52
1.169e-02,-3.96,-3.72
1.172e-02,-4.04,-4.68
1.175e-02,-3.96,-3.64
1.178e-02,-4.6,-4.92
1.182e-02,-3.96,-3.72
1.185e-02,-4.12,-4.6
1.188e-02,-4.2,-3.64
1.191e-02,-4.36,-4.6
1.194e-02,-4.12,-3.72
1.198e-02,-4.36,-4.6
1.201e-02,-4.44,-3.64
1.204e-02,-4.28,-4.76
1.207e-02,-3.96,-3.64
1.210e-02,-4.28,-4.68
1.214e-02,-4.04,-3.56
1.217e-02,-3.8,-4.68
1.220e-02,-4.28,-3.64
1.223e-02,-4.2,-4.68
1.226e-02,-4.2,-3.72
1.230e-02,-4.04,-4.68
1.233e-02,-4.36,-3.72
1.236e-02,-4.04,-4.52
1.239e-02,-3.8,-3.56
1.242e-02,-4.2,-4.76
1.246e-02,-4.2,-3.56
1.249e-02,-4.2,-4.76
1.252e-02,-4.12,-3.8
1.255e-02,-4.76,-4.84
1.258e-02,-4.28,-3.88
1.262e-02,-3.96,-4.76
1.265e-02,-4.12,-3.72
1.268e-02,-4.28,-4.68
1.271e-02,-4.12,-3.8
1.274e-02,-4.12,-4.6
1.278e-02,-4.28,-3.88
1.281e-02,-4.28,-4.52
1.284e-02,-4.2,-3.64
1.287e-02,-4.2,-4.52
1.290e-02,-4.28,-3.88
1.294e-02,-4.28,-4.6
1.297e-02,-3.96,-3.8
1.300e-02,-4.28,-4.52
1.303e-02,-3.64,-3.4
1.306e-02,-4.12,-4.84
1.310e-02,-4.6,-3.64
1.313e-02,-4.28,-4.68
1.316e-02,-4.2,-3.8
1.319e-02,-4.12,-4.68
1.322e-02,-4.2,-3.64
1.326e-02,-4.12,-4.52
1.329e-02,-4.12,-3.72
1.332e-02,-3.96,-4.36
1.335e-02,-3.64,-3.48
1.338e-02,-4.28,-4.52
1.342e-02,-4.12,-3.72
1.345e-02,-4.36,-4.6
1.348e-02,-4.36,-3.64
1.351e-02,-4.04,-4.44
1.354e-02,-4.2,-3.48
1.358e-02,-4.28,-4.68
1.361e-02,-3.88,-3.8
1.364e-02,-4.12,-4.6
1.367e-02,-4.04,-3.8
1.370e-02,-4.28,-4.84
1.374e-02,-4.6,-3.96
1.377e-02,-4.68,-4.84
1.380e-02,-4.04,-3.88
1.383e-02,-4.28,-4.44
1.386e-02,-4.12,-3.64
1.390e-02,-3.8,-4.68
1.393e-02,-4.52,-3.64
1.396e-02,-4.52,-4.68
1.399e-02,-3.88,-3.56
1.402e-02,-3.88,-4.76
1.406e-02,-4.12,-3.56
1.409e-02,-4.04,-4.6
1.412e-02,-4.28,-3.72
1.415e-02,-4.68,-4.84
1.418e-02,-4.28,-3.88
1.422e-02,-4.36,-4.76
1.425e-02,-4.52,-3.96
1.428e-02,-4.12,-4.68
1.431e-02,-4.28,-3.72
1.434e-02,-4.04,-4.68
1.438e-02,-3.96,-3.8
1.441e-02,-4.36,-4.6
1.444e-02,-3.96,-3.72
1.447e-02,-4.44,-4.6
1.450e-02,-3.88,-3.72
1.454e-02,-4.36,-4.68
1.457e-02,-4.28,-3.72
1.460e-02,-4.12,-4.76
1.463e-02,-4.2,-3.88
1.466e-02,-4.28,-4.68
1.470e-02,-4.28,-3.8
1.473e-02,-4.36,-4.68
1.476e-02,-4.36,-3.88
1.479e-02,-4.2,-4.52
1.482e-02,-4.2,-3.72
1.486e-02,-4.04,-4.52
1.489e-02,-4.2,-3.72
1.492e-02,-3.96,-4.52
1.495e-02,-4.36,-3.72
1.498e-02,-4.12,-4.68
1.502e-02,-4.36,-3.88
1.505e-02,-4.04,-4.68
1.508e-02,-4.36,-3.8
1.511e-02,-3.96,-4.52
1.514e-02,-4.2,-3.72
1.518e-02,-4.44,-4.68
1.521e-02,-4.44,-3.8
1.524e-02,-4.36,-5.08
1.527e-02,-4.2,-3.96
1.530e-02,-3.96,-4.52
1.534e-02,-4.28,-3.56
1.537e-02,-4.04,-4.52
1.540e-02,-3.96,-3.64
1.543e-02,-4.52,-4.68
1.546e-02,-4.36,-3.56
1.550e-02,-4.04,-4.52
1.553e-02,-4.2,-3.88
1.556e-02,-4.36,-4.76
1.559e-02,-4.52,-3.96
1.562e-02,-4.04,-4.68
1.566e-02,-4.36,-3.56
1.569e-02,-3.96,-4.6
1.572e-02,-4.2,-3.72
1.575e-02,-4.44,-4.68
1.578e-02,-4.12,-3.8
1.582e-02,-4.44,-4.92
1.585e-02,-4.12,-3.72
1.588e-02,-4.28,-4.68
1.591e-02,-4.36,-3.8
1.594e-02,-3.8,-4.76
1.598e-02,-4.28,-3.72
1.601e-02,-3.88,-4.44
1.604e-02,-4.04,-3.64
1.607e-02,-4.36,-4.68
1.610e-02,-4.6,-3.72
1.614e-02,-3.96,-4.52
1.617e-02,-4.2,-3.56
1.620e-02,-4.36,-4.76
1.623e-02,-4.52,-3.72
1.626e-02,-4.2,-4.44
1.630e-02,-3.96,-3.56
1.633e-02,-4.2,-4.52
1.636e-02,-4.2,-3.4
1.639e-02,-4.36,-4.68
1.642e-02,-4.44,-3.8
1.646e-02,-4.28,-4.6
1.649e-02,-4.2,-3.72
1.652e-02,-4.36,-4.76
1.655e-02,-4.6,-3.88
1.658e-02,-4.28,-4.84
1.662e-02,-4.04,-3.88
1.665e-02,-4.2,-4.36
1.668e-02,-4.12,-3.56
1.671e-02,-3.96,-4.76
1.674e-02,-4.36,-3.72
1.678e-02,-3.8,-4.52
1.681e-02,-3.96,-3.56
1.684e-02,-3.88,-4.68
1.687e-02,-3.88,-3.48
1.690e-02,-4.04,-4.92
1.694e-02,-4.84,-3.88
1.697e-02,-3.96,-4.52
1.700e-02,-4.12,-3.72
1.703e-02,-4.04,-4.92
1.706e-02,-4.36,-3.88
1.710e-02,-4.52,-4.84
1.713e-02,-4.12,-3.48
1.716e-02,-4.2,-4.68
1.719e-02,-4.36,-3.8
1.722e-02,-4.36,-4.84
1.726e-02,-4.2,-3.88
1.729e-02,-4.2,-4.76
1.732e-02,-4.04,-3.72
1.735e-02,-4.2,-4.6
1.738e-02,-4.2,-3.72
1.742e-02,-4.6,-4.76
1.745e-02,-4.04,-3.8
1.748e-02,-3.88,-4.52
1.751e-02,-3.88,-3.56
1.754e-02,-4.36,-4.76
1.758e-02,-4.2,-3.88
1.761e-02,-3.88,-4.28
1.764e-02,-4.04,-3.64
1.767e-02,-4.52,-4.76
1.770e-02,-4.04,-3.56
1.774e-02,-3.96,-4.76
1.777e-02,-4.12,-3.72
1.780e-02,-4.12,-4.52
1.783e-02,-4.44,-3.8
1.786e-02,-4.44,-4.68
1.790e-02,-4.28,-4.04
1.793e-02,-4.12,-4.36
1.796e-02,-4.04,-3.72
1.799e-02,-3.88,-4.68
1.802e-02,-4.44,-3.72
1.806e-02,-4.28,-4.68
1.809e-02,-4.2,-3.64
1.812e-02,-4.36,-4.44
1.815e-02,-3.96,-3.64
1.818e-02,-4.28,-4.6
1.822e-02,-4.44,-3.88
1.825e-02,-4.12,-4.52
1.828e-02,-4.12,-3.64
1.831e-02,-4.04,-4.76
1.834e-02,-4.12,-3.88
1.838e-02,-4.52,-4.76
1.841e-02,-4.36,-3.88
1.844e-02,-4.12,-4.52
1.847e-02,-4.04,-3.72
1.850e-02,-4.12,-4.68
1.854e-02,-4.52,-3.8
1.857e-02,-4.36,-4.52
1.860e-02,-3.96,-3.32
1.863e-02,-4.2,-4.52
1.866e-02,-4.36,-3.64
1.870e-02,-4.2,-4.6
1.873e-02,-4.44,-3.88
1.876e-02,-4.28,-4.84
1.879e-02,-3.88,-3.64
1.882e-02,-4.36,-4.76
1.886e-02,-4.04,-3.64
1.889e-02,-3.96,-4.68
1.892e-02,-3.88,-3.72
1.895e-02,-3.96,-4.6
1.898e-02,-3.8,-3.64
1.902e-02,-4.12,-4.68
1.905e-02,-4.12,-3.8
1.908e-02,-4.12,-4.68
1.911e-02,-4.2,-3.64
1.914e-02,-4.12,-4.6
1.918e-02,-4.12,-3.64
1.921e-02,-3.96,-4.92
1.924e-02,-4.76,-3.88
1.927e-02,-4.44,-4.68
1.930e-02,-4.2,-3.72
1.934e-02,-4.12,-4.52
1.937e-02,-4.04,-3.64
1.940e-02,-4.36,-4.68
1.943e-02,-3.96,-3.8
1.946e-02,-4.12,-4.44
1.950e-02,-4.04,-3.64
1.953e-02,-4.36,-4.6
1.956e-02,-4.04,-3.88
1.959e-02,-4.04,-4.68
1.962e-02,-4.04,-3.88
1.966e-02,-4.2,-4.68
1.969e-02,-4.52,-3.88
1.972e-02,-4.44,-4.6
1.975e-02,-4.12,-3.8
1.978e-02,-4.28,-4.68
1.982e-02,-4.36,-3.8
1.985e-02,-4.2,-4.76
1.988e-02,-4.36,-3.64
1.991e-02,-3.96,-4.6
1.994e-02,-3.96,-3.8
1.998e-02,-4.04,-4.92
2.001e-02,-4.6,-3.64
2.004e-02,-4.04,-4.84
2.007e-02,-4.04,-3.56
2.010e-02,-4.2,-4.52
2.014e-02,-3.88,-3.64
2.017e-02,-4.12,-4.68
2.020e-02,-4.6,-3.8
2.023e-02,-4.36,-4.6
2.026e-02,-4.28,-4.04
2.030e-02,-3.96,-4.52
2.033e-02,-3.96,-3.64
2.036e-02,-3.96,-4.76
2.039e-02,-4.6,-3.8
2.042e-02,-4.44,-4.68
2.046e-02,-4.12,-3.64
2.049e-02,-4.36,-4.76
2.052e-02,-4.44,-3.8
2.055e-02,-4.52,-5.24
2.058e-02,-4.2,-3.56
2.062e-02,-4.12,-4.44
2.065e-02,-4.2,-3.56
2.068e-02,-4.28,-4.6
2.071e-02,-4.2,-3.8
2.074e-02,-4.2,-4.6
2.078e-02,-4.44,-3.8
2.081e-02,-4.12,-4.6
2.084e-02,-4.2,-3.8
2.087e-02,-4.28,-4.6
2.090e-02,-4.44,-4.12
2.094e-02,-3.96,-4.52
2.097e-02,-4.04,-3.72
2.100e-02,-4.12,-5.08
2.103e-02,-4.28,-3.72
2.106e-02,-4.12,-4.6
2.110e-02,-4.04,-3.64
2.113e-02,-4.04,-4.92
2.116e-02,-4.44,-3.8
2.119e-02,-4.28,-5
2.122e-02,-4.12,-3.8
2.126e-02,-4.12,-4.44
2.129e-02,-4.28,-3.8
2.132e-02,-4.36,-4.76
2.135e-02,-3.96,-3.64
2.138e-02,-4.6,-4.84
2.142e-02,-3.8,-3.72
2.145e-02,-4.12,-4.6
2.148e-02,-3.88,-3.72
2.151e-02,-4.28,-4.68
2.154e-02,-4.2,-3.88
2.158e-02,-4.12,-4.52
2.161e-02,-3.96,-3.56
2.164e-02,-4.04,-4.6
2.167e-02,-4.28,-3.72
2.170e-02,-4.12,-4.76
2.174e-02,-4.36,-3.72
2.177e-02,-3.96,-4.68
2.180e-02,-4.12,-3.64
2.183e-02,-4.04,-4.6
2.186e-02,-4.12,-3.56
2.190e-02,-4.04,-4.68
2.193e-02,-3.88,-3.72
2.196e-02,-3.96,-4.84
2.199e-02,-4.6,-3.8
2.202e-02,-4.2,-4.76
2.206e-02,-3.88,-3.72
2.209e-02,-4.28,-4.52
2.212e-02,-4.28,-3.72
2.215e-02,-4.12,-4.76
2.218e-02,-4.28,-3.8
2.222e-02,-4.04,-4.68
2.225e-02,-4.04,-3.64
2.228e-02,-3.96,-4.6
2.231e-02,-3.72,-3.64
2.234e-02,-4.04,-4.44
2.238e-02,-4.36,-3.8
2.241e-02,-4.2,-4.68
2.244e-02,-3.88,-3.72
2.247e-02,-4.36,-4.68
2.250e-02,-4.44,-3.72
2.254e-02,-4.44,-4.76
2.257e-02,-4.36,-3.72
2.260e-02,-3.96,-4.68
2.263e-02,-4.28,-3.48
2.266e-02,-4.04,-4.6
2.270e-02,-4.2,-3.72
2.273e-02,-4.2,-4.68
2.276e-02,-4.04,-3.64
2.279e-02,-4.28,-4.44
2.282e-02,-4.28,-3.72
2.286e-02,-4.2,-4.52
2.289e-02,-4.2,-3.72
2.292e-02,-4.04,-4.68
2.295e-02,-3.88,-3.64
2.298e-02,-4.36,-4.6
2.302e-02,-4.36,-3.72
2.305e-02,-4.28,-4.76
2.308e-02,-3.96,-3.88
2.311e-02,-4.2,-4.36
2.314e-02,-4.04,-3.8
2.318e-02,-4.28,-4.84
2.321e-02,-4.44,-3.8
2.324e-02,-4.04,-4.68
2.327e-02,-4.04,-3.64
2.330e-02,-4.12,-4.68
2.334e-02,-4.44,-3.88
2.337e-02,-4.04,-4.44
2.340e-02,-4.12,-3.8
2.343e-02,-4.2,-4.6
2.346e-02,-4.28,-3.72
2.350e-02,-3.96,-4.68
2.353e-02,-4.44,-3.8
2.356e-02,-4.44,-4.52
2.359e-02,-4.04,-3.64
2.362e-02,-4.2,-4.44
2.366e-02,-4.2,-3.8
2.369e-02,-3.96,-4.84
2.372e-02,-4.2,-3.8
2.375e-02,-4.04,-4.6
2.378e-02,-4.04,-3.72
2.382e-02,-4.28,-4.6
2.385e-02,-4.2,-3.88
2.388e-02,-4.36,-4.6
2.391e-02,-4.2,-3.72
2.394e-02,-3.72,-4.44
2.398e-02,-3.88,-3.48
2.401e-02,-4.6,-4.76
2.404e-02,-4.28,-3.8
2.407e-02,-4.04,-4.28
2.410e-02,-4.2,-3.64
2.414e-02,-4.12,-4.6
2.417e-02,-4.44,-3.8
2.420e-02,-4.12,-4.68
2.423e-02,-3.88,-3.72
2.426e-02,-3.96,-4.52
2.430e-02,-4.28,-3.64
2.433e-02,-3.88,-4.68
2.436e-02,-4.28,-3.64
2.439e-02,-4.28,-4.6
2.442e-02,-4.04,-3.64
2.446e-02,-4.12,-4.52
2.449e-02,-4.28,-3.64
2.452e-02,-4.12,-4.52
2.455e-02,-3.8,-3.64
2.458e-02,-4.36,-4.68
2.462e-02,-3.96,-3.56
2.465e-02,-4.2,-4.68
2.468e-02,-4.28,-3.8
2.471e-02,-4.12,-4.6
2.474e-02,-4.04,-3.72
2.478e-02,-4.36,-4.68
2.481e-02,-4.28,-3.88
2.484e-02,-4.44,-4.52
2.487e-02,-4.04,-3.72
2.490e-02,-3.96,-4.44
2.494e-02,-3.88,-3.64
2.497e-02,-4.6,-4.76
2.500e-02,-4.12,-3.88
2.503e-02,-4.2,-4.68
2.506e-02,-4.2,-3.88
2.510e-02,-3.88,-4.6
2.513e-02,-4.2,-3.64
2.516e-02,-4.2,-4.52
2.519e-02,-4.12,-3.96
2.522e-02,-3.96,-4.68
2.526e-02,-4.36,-3.88
2.529e-02,-4.2,-4.68
2.532e-02,-4.2,-3.96
2.535e-02,-4.2,-4.6
2.538e-02,-4.28,-3.64
2.542e-02,-4.12,-4.36
2.545e-02,-3.88,-3.72
2.548e-02,-4.2,-4.68
2.551e-02,-4.36,-3.8
2.554e-02,-3.8,-4.52
2.558e-02,-4.12,-3.64
2.561e-02,-4.2,-4.84
2.564e-02,-4.28,-3.88
2.567e-02,-4.04,-4.76
2.570e-02,-3.88,-3.72
2.574e-02,-3.96,-4.44
2.577e-02,-4.2,-3.64
2.580e-02,-4.04,-4.68
2.583e-02,-4.36,-3.88
2.586e-02,-4.12,-4.6
2.590e-02,-3.96,-3.56
2.593e-02,-4.12,-4.52
2.596e-02,-4.28,-3.64
2.599e-02,-4.04,-4.76
2.602e-02,-4.04,-3.8
2.606e-02,-3.88,-4.52
2.609e-02,-3.8,-3.24
2.612e-02,-4.04,-4.76
2.615e-02,-4.44,-3.88
2.618e-02,-4.04,-4.6
2.622e-02,-4.36,-3.64
2.625e-02,-4.04,-4.6
2.628e-02,-4.04,-3.88
2.631e-02,-4.12,-5.16
2.634e-02,-4.2,-3.88
2.638e-02,-4.12,-4.36
2.641e-02,-3.8,-3.64
2.644e-02,-4.04,-4.68
2.647e-02,-3.88,-3.56
2.650e-02,-4.36,-4.6
2.654e-02,-4.2,-3.88
2.657e-02,-3.96,-4.6
2.660e-02,-4.28,-3.8
2.663e-02,-4.36,-4.52
2.666e-02,-4.2,-3.8
2.670e-02,-4.04,-4.36
2.673e-02,-4.04,-3.72
2.676e-02,-4.2,-4.68
2.679e-02,-4.2,-3.8
2.682e-02,-4.36,-4.76
2.686e-02,-4.28,-3.72
2.689e-02,-3.88,-4.36
2.692e-02,-4.2,-3.72
2.695e-02,-4.12,-4.68
2.698e-02,-4.44,-3.88
2.702e-02,-4.04,-4.6
2.705e-02,-4.28,-3.72
2.708e-02,-3.88,-4.52
2.711e-02,-4.04,-3.64
2.714e-02,-4.28,-4.68
2.718e-02,-4.28,-3.88
2.721e-02,-4.28,-4.68
2.724e-02,-4.04,-3.8
2.727e-02,-4.28,-4.44
2.730e-02,-3.96,-3.8
2.734e-02,-3.88,-4.68
2.737e-02,-4.44,-3.72
2.740e-02,-4.12,-4.52
2.743e-02,-4.2,-3.64
2.746e-02,-4.12,-4.68
2.750e-02,-4.12,-3.8
2.753e-02,-4.44,-4.68
2.756e-02,-4.04,-3.72
2.759e-02,-4.28,-4.92
2.762e-02,-4.6,-3.88
2.766e-02,-3.8,-4.76
2.769e-02,-4.52,-3.64
2.772e-02,-3.88,-4.68
2.775e-02,-4.04,-3.72
2.778e-02,-4.04,-4.52
2.782e-02,-4.12,-3.8
2.785e-02,-3.88,-4.44
2.788e-02,-3.88,-3.48
2.791e-02,-4.36,-4.52
2.794e-02,-4.28,-3.56
2.798e-02,-4.36,-4.6
2.801e-02,-4.28,-3.88
2.804e-02,-4.12,-4.52
2.807e-02,-3.8,-3.48
2.810e-02,-3.88,-4.6
2.814e-02,-3.96,-3.72
2.817e-02,-3.88,-4.28
2.820e-02,-4.12,-3.56
2.823e-02,-4.04,-4.68
2.826e-02,-4.2,-3.64
2.830e-02,-4.28,-4.52
2.833e-02,-3.88,-3.72
2.836e-02,-4.12,-4.52
2.839e-02,-4.04,-3.72
2.842e-02,-4.2,-4.68
2.846e-02,-4.36,-3.96
2.849e-02,-4.36,-4.76
2.852e-02,-4.36,-3.72
2.855e-02,-3.88,-4.36
2.858e-02,-4.04,-3.64
2.862e-02,-4.2,-4.84
2.865e-02,-4.36,-3.72
2.868e-02,-3.8,-4.36
2.871e-02,-4.12,-3.56
2.874e-02,-4.28,-4.68
2.878e-02,-4.2,-3.88
2.881e-02,-4.2,-4.44
2.884e-02,-4.12,-3.56
2.887e-02,-3.8,-4.6
2.890e-02,-4.2,-3.48
2.894e-02,-4.12,-4.68
2.897e-02,-4.2,-4.04
2.900e-02,-3.56,-4.44
2.903e-02,-4.04,-3.4
2.906e-02,-3.96,-4.6
2.910e-02,-4.2,-3.48
2.913e-02,-4.2,-4.76
2.916e-02,-4.12,-3.88
2.919e-02,-4.2,-4.68
2.922e-02,-3.8,-3.72
2.926e-02,-3.96,-4.68
2.929e-02,-4.12,-3.56
2.932e-02,-4.36,-4.68
2.935e-02,-4.36,-3.64
2.938e-02,-4.36,-4.6
2.942e-02,-3.96,-3.8
2.945e-02,-4.28,-4.68
2.948e-02,-4.12,-3.88
2.951e-02,-4.44,-4.68
2.954e-02,-3.96,-3.72
2.958e-02,-4.28,-4.6
2.961e-02,-4.36,-3.72
2.964e-02,-4.2,-4.52
2.967e-02,-4.04,-3.64
2.970e-02,-4.2,-4.44
2.974e-02,-4.2,-3.48
2.977e-02,-4.44,-4.84
2.980e-02,-3.96,-3.72
2.983e-02,-3.88,-4.68
2.986e-02,-4.04,-3.72
2.990e-02,-4.12,-4.68
2.993e-02,-4.36,-3.64
2.996e-02,-4.04,-4.68
2.999e-02,-3.88,-3.64
3.002e-02,-4.2,-4.68
3.006e-02,-3.96,-3.48
3.009e-02,-4.28,-4.52
3.012e-02,-4.28,-3.96
3.015e-02,-4.44,-4.52
3.018e-02,-3.96,-3.56
3.022e-02,-4.04,-4.76
3.025e-02,-4.6,-3.88
3.028e-02,-4.28,-4.68
3.031e-02,-4.28,-3.8
3.034e-02,-4.2,-4.52
3.038e-02,-4.12,-3.56
3.041e-02,-4.28,-4.76
3.044e-02,-4.04,-3.72
3.047e-02,-4.04,-4.76
3.050e-02,-4.36,-3.72
3.054e-02,-3.96,-4.44
3.057e-02,-4.36,-3.64
3.060e-02,-4.28,-4.68
3.063e-02,-4.2,-3.72
3.066e-02,-4.28,-4.6
3.070e-02,-4.12,-3.4
3.073e-02,-4.36,-4.6
3.076e-02,-4.2,-3.4
3.079e-02,-4.36,-4.76
3.082e-02,-4.28,-3.8
3.086e-02,-4.04,-4.44
3.089e-02,-4.12,-3.72
3.092e-02,-4.6,-4.76
3.095e-02,-4.04,-3.88
3.098e-02,-4.36,-4.68
3.102e-02,-4.28,-3.56
3.105e-02,-4.12,-4.6
3.108e-02,-4.12,-3.72
3.111e-02,-4.52,-4.92
3.114e-02,-4.36,-4.04
3.118e-02,-3.88,-4.36
3.121e-02,-3.8,-3.72
3.124e-02,-4.12,-4.68
3.127e-02,-3.88,-3.64
3.130e-02,-4.44,-4.6
3.134e-02,-4.04,-3.64
3.137e-02,-3.96,-4.68
3.140e-02,-4.04,-3.72
3.143e-02,-3.96,-4.6
3.146e-02,-4.2,-3.8
3.150e-02,-4.2,-4.52
3.153e-02,-3.72,-3.48
3.156e-02,-3.8,-4.6
3.159e-02,-4.04,-3.72
3.162e-02,-3.96,-4.6
3.166e-02,-3.8,-3.72
3.169e-02,-4.12,-4.6
3.172e-02,-3.72,-3.64
3.175e-02,-4.52,-4.68
3.178e-02,-4.36,-3.64
3.182e-02,-4.44,-4.6
3.185e-02,-3.96,-3.48
3.188e-02,-3.8,-4.44
3.191e-02,-4.2,-3.72
3.194e-02,-4.12,-4.52
3.198e-02,-4.28,-3.72
3.201e-02,-4.2,-4.44
3.204e-02,-3.8,-3.48
3.207e-02,-3.96,-4.76
3.210e-02,-4.44,-3.88
3.214e-02,-4.04,-4.44
3.217e-02,-4.04,-3.48
3.220e-02,-4.12,-4.68
3.223e-02,-3.96,-3.8
3.226e-02,-4.36,-4.68
3.230e-02,-4.12,-3.88
3.233e-02,-3.88,-4.6
3.236e-02,-4.04,-3.48
3.239e-02,-4.12,-4.76
3.242e-02,-4.52,-3.8
3.246e-02,-4.68,-4.76
3.249e-02,-3.96,-3.72
3.252e-02,-3.88,-4.76
3.255e-02,-4.28,-3.72
3.258e-02,-4.36,-4.76
3.262e-02,-4.36,-3.96
3.265e-02,-3.96,-4.68
3.268e-02,-4.44,-3.72
3.271e-02,-4.52,-4.76
3.274e-02,-4.2,-3.72
3.278e-02,-4.04,-4.68
3.281e-02,-3.88,-3.64
3.284e-02,-3.96,-4.6
3.287e-02,-4.44,-3.72
3.290e-02,-4.28,-4.6
3.294e-02,-4.2,-3.8
3.297e-02,-4.04,-4.44
3.300e-02,-3.88,-3.72
3.303e-02,-3.96,-4.52
3.306e-02,-4.36,-3.56
3.310e-02,-4.28,-4.52
3.313e-02,-4.28,-3.8
3.316e-02,-3.96,-4.44
3.319e-02,-3.64,-3.48
3.322e-02,-4.04,-4.84
3.326e-02,-4.6,-3.8
3.329e-02,-4.2,-4.44
3.332e-02,-3.96,-3.56
3.335e-02,-4.04,-4.6
3.338e-02,-3.88,-3.56
3.342e-02,-4.52,-4.6
3.345e-02,-3.8,-3.72
3.348e-02,-4.52,-4.6
3.351e-02,-4.04,-3.8
3.354e-02,-4.44,-4.68
3.358e-02,-4.44,-3.64
3.361e-02,-4.6,-4.76
3.364e-02,-4.04,-3.8
3.367e-02,-4.36,-4.52
3.370e-02,-4.12,-3.8
3.374e-02,-4.04,-4.68
3.377e-02,-3.96,-3.88
3.380e-02,-4.04,-4.36
3.383e-02,-4.2,-3.8
3.386e-02,-4.04,-4.52
3.390e-02,-4.12,-3.88
3.393e-02,-4.2,-4.76
3.396e-02,-4.2,-3.72
3.399e-02,-4.04,-4.84
3.402e-02,-4.44,-3.64
3.406e-02,-4.2,-4.44
3.409e-02,-4.2,-3.88
3.412e-02,-4.76,-4.84
3.415e-02,-3.88,-3.72
3.418e-02,-4.04,-4.36
3.422e-02,-4.12,-3.72
3.425e-02,-4.2,-4.6
3.428e-02,-3.88,-3.72
3.431e-02,-3.96,-4.44
3.434e-02,-4.12,-3.72
3.438e-02,-3.8,-4.68
3.441e-02,-3.96,-3.64
3.444e-02,-4.52,-4.68
3.447e-02,-4.6,-3.8
3.450e-02,-3.8,-4.52
3.454e-02,-4.12,-3.64
3.457e-02,-4.36,-4.68
3.460e-02,-4.2,-3.72
3.463e-02,-3.88,-4.76
3.466e-02,-3.96,-3.64
3.470e-02,-4.2,-4.6
3.473e-02,-4.12,-3.72
3.476e-02,-4.36,-4.52
3.479e-02,-4.2,-3.72
3.482e-02,-4.2,-4.52
3.486e-02,-4.2,-3.48
3.489e-02,-4.04,-4.52
3.492e-02,-4.12,-3.72
3.495e-02,-4.12,-4.44
3.498e-02,-4.12,-3.72
3.502e-02,-4.28,-4.6
3.505e-02,-4.52,-3.48
3.508e-02,-4.12,-4.76
3.511e-02,-4.36,-3.88
3.514e-02,-3.96,-4.76
3.518e-02,-3.8,-3.72
3.521e-02,-4.36,-4.84
3.524e-02,-3.88,-3.72
3.527e-02,-4.12,-4.68
3.530e-02,-3.96,-3.56
3.534e-02,-3.88,-14.12
3.537e-02,-4.52,-3.48
3.540e-02,-14.12,-14.12
3.543e-02,1.24,6.2
3.546e-02,1.4,1.08
3.550e-02,1.32,2.04
3.553e-02,1.32,0.68
3.556e-02,1.08,1.64
3.559e-02,1,0.84
3.562e-02,1.24,1.72
3.566e-02,0.76,0.6
3.569e-02,1.16,1.8
3.572e-02,0.76,0.52
3.575e-02,0.6,1.32
3.578e-02,1,0.44
3.582e-02,0.84,1.24
3.585e-02,0.44,0.04
3.588e-02,0.28,0.84
3.591e-02,0.36,-0.04
3.594e-02,0.04,0.76
3.598e-02,0.12,-0.36
3.601e-02,0.12,0.6
3.604e-02,-0.68,-0.84
3.607e-02,-0.52,-0.04
3.610e-02,-0.76,-0.84
3.614e-02,-0.28,0.12
3.617e-02,-0.76,-1.08
3.620e-02,-0.76,-0.12
3.623e-02,-0.92,-1.72
3.626e-02,-0.92,-0.6
3.630e-02,-1.48,-1.72
3.633e-02,-0.84,-0.6
3.636e-02,-0.84,-1.64
3.639e-02,-1.32,-0.68
3.642e-02,-1.56,-1.72
3.646e-02,-1.4,-0.92
3.649e-02,-1.4,-2.12
3.652e-02,-1.48,-0.92
3.655e-02,-1.72,-2.28
3.658e-02,-1.48,-1.24
3.662e-02,-1.32,-2.04
3.665e-02,-1.64,-0.92
3.668e-02,-1.8,-2.44
3.671e-02,-2.2,-1.4
3.674e-02,-1.96,-2.52
3.678e-02,-1.64,-1.56
3.681e-02,-2.12,-2.76
3.684e-02,-2.6,-1.88
3.687e-02,-2.2,-2.68
3.690e-02,-2.12,-1.8
3.694e-02,-2.28,-2.76
3.697e-02,-2.2,-1.88
3.700e-02,-2.28,-3
3.703e-02,-2.52,-1.96
3.706e-02,-2.28,-3.08
3.710e-02,-2.6,-2.2
3.713e-02,-2.6,-3
3.716e-02,-2.6,-2.12
3.719e-02,-3.16,-3.24
3.722e-02,-2.76,-2.36
3.726e-02,-2.92,-3.32
3.729e-02,-3.16,-2.52
3.732e-02,-3.16,-3.4
3.735e-02,-3.08,-2.52
3.738e-02,-2.84,-3.48
3.742e-02,-2.92,-2.52
3.745e-02,-3.08,-3.4
3.748e-02,-3.24,-2.52
3.751e-02,-3.56,-3.96
3.754e-02,-3.24,-3
3.758e-02,-3.32,-3.8
3.761e-02,-3.24,-3
3.764e-02,-2.76,-3.64
3.767e-02,-3.32,-2.68
3.770e-02,-3.56,-3.8
3.774e-02,-3.72,-3.08
3.777e-02,-3.4,-3.8
3.780e-02,-3.4,-2.76
3.783e-02,-3.56,-3.72
3.786e-02,-3.16,-2.76
3.790e-02,-3.32,-3.88
3.793e-02,-3.56,-3
3.796e-02,-3.48,-3.64
3.799e-02,-3.24,-2.92
3.802e-02,-3.72,-4.12
3.806e-02,-3.56,-3.24
3.809e-02,-3.88,-4.12
3.812e-02,-3.56,-3.08
3.815e-02,-3.16,-4.28
3.818e-02,-4.12,-2.92
3.822e-02,-3.88,-4.12
3.825e-02,-3.88,-3.16
3.828e-02,-3.72,-4.12
3.831e-02,-3.48,-3.24
3.834e-02,-3.72,-4.04
3.838e-02,-3.8,-3.4
3.841e-02,-3.4,-3.96
3.844e-02,-3.72,-3.24
3.847e-02,-3.64,-4.28
3.850e-02,-3.88,-3.4
3.854e-02,-3.8,-4.36
3.857e-02,-3.88,-3.4
3.860e-02,-3.4,-3.96
3.863e-02,-3.32,-3.08
3.866e-02,-3.72,-4.12
3.870e-02,-3.96,-3
3.873e-02,-3.48,-4.04
3.876e-02,-3.24,-3.16
3.879e-02,-3.88,-4.28
3.882e-02,-3.56,-3.24
3.886e-02,-3.88,-4.12
3.889e-02,-3.96,-3.56
3.892e-02,-3.56,-4.2
3.895e-02,-3.96,-3.08
3.898e-02,-3.56,-4.2
3.902e-02,-3.88,-3.16
3.905e-02,-3.88,-4.36
3.908e-02,-3.88,-3.48
3.911e-02,-3.64,-4.2
3.914e-02,-3.88,-3.4
3.918e-02,-4.2,-4.28
3.921e-02,-3.72,-3.4
3.924e-02,-3.72,-4.36
3.927e-02,-4.12,-3.32
3.930e-02,-4.04,-4.28
3.934e-02,-4.12,-3.32
3.937e-02,-4.36,-4.52
3.940e-02,-3.72,-3.64
3.943e-02,-3.96,-4.12
3.946e-02,-3.48,-3.08
3.950e-02,-3.96,-4.6
3.953e-02,-3.96,-3.64
3.956e-02,-4.04,-4.44
3.959e-02,-4.2,-3.56
3.962e-02,-4.2,-4.36
3.966e-02,-3.72,-3.64
3.969e-02,-4.2,-4.44
3.972e-02,-4.28,-3.56
3.975e-02,-4.12,-4.28
3.978e-02,-3.88,-3.64
3.982e-02,-4.12,-4.44
3.985e-02,-4.04,-3.48
3.988e-02,-4.28,-4.44
3.991e-02,-4.2,-3.72
3.994e-02,-3.88,-4.52
3.998e-02,-3.8,-3.32
4.001e-02,-4.12,-4.52
4.004e-02,-3.96,-3.64
4.007e-02,-4.2,-4.36
4.010e-02,-3.56,-3.4
4.014e-02,-3.64,-4.52
4.017e-02,-4.2,-3.56
4.020e-02,-3.96,-4.36
4.023e-02,-3.96,-3.64
4.026e-02,-4.28,-4.36
4.030e-02,-3.64,-3.4
4.033e-02,-4.2,-4.52
4.036e-02,-3.88,-3.72
4.039e-02,-4.12,-4.52
4.042e-02,-4.12,-3.64
4.046e-02,-4.12,-4.52
4.049e-02,-4.04,-3.8
4.052e-02,-4.28,-4.68
4.055e-02,-4.28,-3.8
4.058e-02,-3.96,-4.44
4.062e-02,-3.96,-3.64
4.065e-02,-4.28,-4.52
4.068e-02,-4.12,-3.72
4.071e-02,-3.96,-4.68
4.074e-02,-3.96,-3.72
4.078e-02,-4.12,-4.6
4.081e-02,-3.8,-3.64
4.084e-02,-4.36,-4.68
4.087e-02,-3.8,-3.72
4.090e-02,-4.04,-4.28
4.094e-02,-3.96,-3.56
4.097e-02,-4.04,-4.68
4.100e-02,-4.2,-3.56
4.103e-02,-3.8,-4.68
4.106e-02,-3.96,-3.64
4.110e-02,-4.04,-4.68
4.113e-02,-4.52,-3.4
4.116e-02,-4.12,-4.92
4.119e-02,-4.44,-3.48
4.122e-02,-4.12,-4.52
4.126e-02,-4.28,-3.72
4.129e-02,-4.12,-4.52
4.132e-02,-4.2,-3.64
4.135e-02,-4.04,-4.44
4.138e-02,-4.28,-3.48
4.142e-02,-3.64,-4.52
4.145e-02,-4.12,-3.4
4.148e-02,-4.28,-4.52
4.151e-02,-4.04,-3.72
4.154e-02,-3.96,-4.44
4.158e-02,-4.28,-3.56
4.161e-02,-4.12,-4.6
4.164e-02,-4.44,-3.56
4.167e-02,-4.36,-4.52
4.170e-02,-4.04,-3.8
4.174e-02,-4.28,-4.44
4.177e-02,-3.72,-3.48
4.180e-02,-4.12,-4.52
4.183e-02,-4.36,-3.64
4.186e-02,-4.28,-4.68
4.190e-02,-4.52,-3.48
4.193e-02,-3.8,-4.36
4.196e-02,-4.12,-3.64
4.199e-02,-4.04,-4.52
4.202e-02,-4.28,-3.64
4.206e-02,-3.96,-4.36
4.209e-02,-3.96,-3.72
4.212e-02,-3.88,-4.36
4.215e-02,-3.8,-3.56
4.218e-02,-4.12,-4.36
4.222e-02,-3.88,-3.64
4.225e-02,-3.72,-4.6
4.228e-02,-3.88,-3.56
4.231e-02,-4.36,-4.52
4.234e-02,-3.88,-3.64
4.238e-02,-3.96,-4.36
4.241e-02,-3.96,-3.56
4.244e-02,-3.88,-4.36
4.247e-02,-4.12,-3.64
4.250e-02,-4.12,-4.6
4.254e-02,-3.96,-3.8
4.257e-02,-4.12,-4.68
4.260e-02,-3.88,-3.56
4.263e-02,-3.72,-4.68
4.266e-02,-3.96,-3.56
4.270e-02,-4.28,-4.44
4.273e-02,-3.8,-3.4
4.276e-02,-3.96,-4.6
4.279e-02,-4.28,-3.8
4.282e-02,-4.36,-4.68
4.286e-02,-4.2,-3.8
4.289e-02,-3.8,-4.36
4.292e-02,-3.88,-3.56
4.295e-02,-4.2,-4.52
4.298e-02,-4.04,-3.8
4.302e-02,-4.12,-4.36
4.305e-02,-3.96,-3.64
4.308e-02,-3.72,-4.44
4.311e-02,-3.96,-3.32
4.314e-02,-4.52,-4.68
4.318e-02,-4.2,-3.8
4.321e-02,-4.04,-4.44
4.324e-02,-4.2,-3.56
4.327e-02,-4.04,-4.6
4.330e-02,-3.88,-3.64
4.334e-02,-3.88,-4.44
4.337e-02,-4.28,-3.64
4.340e-02,-4.04,-4.44
4.343e-02,-4.12,-3.72
4.346e-02,-4.12,-4.6
4.350e-02,-4.44,-3.48
4.353e-02,-3.64,-4.36
4.356e-02,-3.88,-3.56
4.359e-02,-4.12,-4.28
4.362e-02,-3.88,-3.64
4.366e-02,-4.2,-4.76
4.369e-02,-4.44,-3.88
4.372e-02,-3.88,-4.76
4.375e-02,-4.12,-3.56
4.378e-02,-3.96,-4.6
4.382e-02,-4.36,-3.72
4.385e-02,-4.28,-4.44
4.388e-02,-3.72,-3.4
4.391e-02,-3.88,-4.52
4.394e-02,-4.12,-3.64
4.398e-02,-3.88,-4.52
4.401e-02,-4.12,-3.64
4.404e-02,-4.04,-4.52
4.407e-02,-3.88,-3.56
4.410e-02,-4.12,-4.6
4.414e-02,-4.36,-3.8
4.417e-02,-4.2,-4.52
4.420e-02,-4.12,-3.64
4.423e-02,-3.96,-4.44
4.426e-02,-4.28,-3.72
4.430e-02,-3.96,-4.52
4.433e-02,-4.36,-3.72
4.436e-02,-3.88,-4.44
4.439e-02,-4.28,-3.72
4.442e-02,-4.36,-4.76
4.446e-02,-4.44,-3.88
4.449e-02,-4.2,-4.6
4.452e-02,-4.12,-3.72
4.455e-02,-4.04,-4.6
4.458e-02,-4.04,-3.72
4.462e-02,-4.04,-4.68
4.465e-02,-4.6,-3.72
4.468e-02,-4.52,-4.68
4.471e-02,-3.8,-3.4
4.474e-02,-3.96,-4.6
4.478e-02,-4.28,-3.72
4.481e-02,-4.04,-4.52
4.484e-02,-4.44,-3.88
4.487e-02,-4.12,-4.6
4.490e-02,-4.36,-3.56
4.494e-02,-4.28,-4.6
4.497e-02,-4.2,-3.88
4.500e-02,-4.36,-4.6
4.503e-02,-4.2,-3.72
4.506e-02,-3.64,-4.6
4.510e-02,-4.04,-3.56
4.513e-02,-4.04,-4.68
4.516e-02,-4.52,-3.72
4.519e-02,-4.04,-4.44
4.522e-02,-4.04,-3.64
4.526e-02,-3.96,-4.76
4.529e-02,-4.28,-3.64
4.532e-02,-4.2,-4.6
4.535e-02,-4.04,-3.8
4.538e-02,-4.52,-4.84
4.542e-02,-4.12,-3.8
4.545e-02,-4.36,-4.6
4.548e-02,-4.28,-3.64
4.551e-02,-3.96,-4.44
4.554e-02,-4.2,-3.64
4.558e-02,-4.12,-4.52
4.561e-02,-4.04,-3.72
4.564e-02,-4.2,-4.6
4.567e-02,-4.2,-3.72
4.570e-02,-4.28,-4.52
4.574e-02,-4.12,-3.72
4.577e-02,-4.28,-4.76
4.580e-02,-4.52,-3.8
4.583e-02,-4.28,-4.44
4.586e-02,-4.2,-3.56
4.590e-02,-3.88,-4.36
4.593e-02,-4.04,-3.4
4.596e-02,-4.44,-4.68
4.599e-02,-4.04,-3.88
4.602e-02,-4.2,-4.44
4.606e-02,-3.96,-3.64
4.609e-02,-4.36,-4.52
4.612e-02,-4.28,-3.48
4.615e-02,-4.28,-4.52
4.618e-02,-3.96,-3.56
4.622e-02,-4.36,-4.52
4.625e-02,-4.12,-3.72
4.628e-02,-3.96,-4.68
4.631e-02,-4.36,-3.48
4.634e-02,-4.12,-4.36
4.638e-02,-3.88,-3.72
4.641e-02,-4.28,-4.84
4.644e-02,-4.12,-3.88
4.647e-02,-4.28,-4.92
4.650e-02,-4.2,-3.88
4.654e-02,-4.28,-4.52
4.657e-02,-3.88,-3.56
4.660e-02,-4.28,-4.6
4.663e-02,-4.28,-3.88
4.666e-02,-4.36,-4.52
4.670e-02,-3.88,-3.4
4.673e-02,-4.2,-4.52
4.676e-02,-4.2,-3.88
4.679e-02,-4.44,-4.84
4.682e-02,-4.28,-3.96
4.686e-02,-4.04,-4.52
4.689e-02,-4.36,-3.48
4.692e-02,-3.72,-4.44
4.695e-02,-4.36,-3.56
4.698e-02,-4.12,-4.6
4.702e-02,-3.72,-3.56
4.705e-02,-4.28,-4.52
4.708e-02,-3.8,-3.4
4.711e-02,-4.2,-4.92
4.714e-02,-4.04,-3.96
4.718e-02,-4.04,-4.44
4.721e-02,-3.96,-3.72
4.724e-02,-4.36,-4.68
4.727e-02,-4.44,-3.64
4.730e-02,-4.6,-4.76
4.734e-02,-4.2,-3.8
4.737e-02,-3.72,-4.52
4.740e-02,-4.36,-3.48
4.743e-02,-4.36,-4.52
4.746e-02,-3.8,-3.64
4.750e-02,-4.12,-4.44
4.753e-02,-3.88,-3.72
4.756e-02,-4.12,-4.52
4.759e-02,-3.96,-3.8
4.762e-02,-4.36,-4.6
4.766e-02,-4.36,-3.88
4.769e-02,-4.12,-4.36
4.772e-02,-3.96,-3.56
4.775e-02,-4.12,-4.68
4.778e-02,-4.36,-3.56
4.782e-02,-4.44,-4.6
4.785e-02,-4.12,-3.8
4.788e-02,-4.12,-4.52
4.791e-02,-4.04,-3.72
4.794e-02,-4.52,-4.68
4.798e-02,-4.12,-3.72
4.801e-02,-3.88,-4.36
4.804e-02,-3.56,-3.4
4.807e-02,-4.04,-4.6
4.810e-02,-4.04,-3.8
4.814e-02,-4.2,-4.52
4.817e-02,-4.2,-3.8
4.820e-02,-3.88,-4.52
4.823e-02,-4.2,-3.8
4.826e-02,-3.8,-4.68
4.830e-02,-4.04,-3.32
4.833e-02,-4.28,-4.76
4.836e-02,-3.88,-3.64
4.839e-02,-4.12,-4.68
4.842e-02,-4.36,-3.72
4.846e-02,-4.28,-4.68
4.849e-02,-4.12,-3.56
4.852e-02,-4.04,-4.52
4.855e-02,-4.36,-3.72
4.858e-02,-4.68,-4.84
4.862e-02,-4.12,-3.8
4.865e-02,-4.12,-4.44
4.868e-02,-4.2,-3.88
4.871e-02,-4.2,-4.44
4.874e-02,-4.2,-3.8
4.878e-02,-3.88,-4.76
4.881e-02,-4.04,-3.72
4.884e-02,-3.72,-4.6
4.887e-02,-3.96,-3.64
4.890e-02,-4.36,-4.68
4.894e-02,-4.28,-3.72
4.897e-02,-4.2,-4.68
4.900e-02,-4.04,-3.8
4.903e-02,-4.44,-4.68
4.906e-02,-4.04,-3.72
4.910e-02,-4.12,-4.52
4.913e-02,-4.28,-3.8
4.916e-02,-4.12,-4.6
4.919e-02,-4.04,-3.48
4.922e-02,-4.04,-4.6
4.926e-02,-4.44,-3.64
4.929e-02,-4.12,-4.44
4.932e-02,-4.04,-3.56
4.935e-02,-3.88,-4.44
4.938e-02,-4.04,-3.72
4.942e-02,-4.04,-4.6
4.945e-02,-4.36,-3.8
4.948e-02,-3.8,-4.36
4.951e-02,-4.04,-3.48
4.954e-02,-4.28,-4.52
4.958e-02,-4.28,-3.96
4.961e-02,-4.52,-4.68
4.964e-02,-3.96,-3.64
4.967e-02,-4.36,-4.52
4.970e-02,-4.12,-3.8
4.974e-02,-4.28,-4.68
4.977e-02,-4.44,-3.8
4.980e-02,-4.28,-4.68
4.983e-02,-4.28,-3.48
4.986e-02,-4.2,-4.44
4.990e-02,-4.04,-3.4
4.993e-02,-4.52,-4.76
4.996e-02,-4.6,-3.8
4.999e-02,-4.12,-4.44
5.002e-02,-4.04,-3.72
5.006e-02,-4.12,-4.52
5.009e-02,-4.04,-3.88
5.012e-02,-3.72,-4.6
5.015e-02,-3.72,-3.56
5.018e-02,-4.52,-4.6
5.022e-02,-3.96,-3.88
5.025e-02,-4.2,-4.44
5.028e-02,-3.96,-3.72
5.031e-02,-4.12,-4.6
5.034e-02,-4.12,-3.72
5.038e-02,-4.04,-4.76
5.041e-02,-4.12,-3.48
5.044e-02,-4.52,-4.68
5.047e-02,-4.52,-3.72
5.050e-02,-4.28,-4.52
5.054e-02,-3.8,-3.56
5.057e-02,-4.2,-4.76
5.060e-02,-4.28,-3.72
5.063e-02,-4.6,-4.76
5.066e-02,-3.88,-3.64
5.070e-02,-4.2,-4.6
5.073e-02,-4.44,-3.64
5.076e-02,-3.96,-4.68
5.079e-02,-4.28,-3.8
5.082e-02,-4.36,-4.44
5.086e-02,-4.04,-3.56
5.089e-02,-4.44,-4.76
5.092e-02,-4.2,-3.56
5.095e-02,-4.2,-4.76
5.098e-02,-3.96,-3.72
5.102e-02,-4.04,-4.68
5.105e-02,-4.28,-3.88
5.108e-02,-4.68,-4.76
5.111e-02,-4.6,-3.72
5.114e-02,-4.44,-4.68
5.118e-02,-3.72,-3.56
5.121e-02,-3.88,-4.52
5.124e-02,-4.28,-3.56
5.127e-02,-4.12,-4.52
5.130e-02,-4.2,-3.88
5.134e-02,-3.96,-4.44
5.137e-02,-4.2,-3.48
5.140e-02,-4.04,-4.52
5.143e-02,-4.12,-3.8
5.146e-02,-4.28,-4.68
5.150e-02,-4.04,-3.64
5.153e-02,-4.28,-4.44
5.156e-02,-4.2,-3.48
5.159e-02,-4.36,-4.68
5.162e-02,-4.28,-3.88
5.166e-02,-3.8,-4.52
5.169e-02,-4.12,-3.56
5.172e-02,-3.96,-4.76
5.175e-02,-4.36,-3.56
5.178e-02,-4.2,-4.6
5.182e-02,-3.8,-3.56
5.185e-02,-4.04,-4.52
5.188e-02,-4.12,-3.72
5.191e-02,-4.36,-4.68
5.194e-02,-4.28,-3.88
5.198e-02,-3.88,-4.36
5.201e-02,-3.64,-3.48
5.204e-02,-4.44,-4.6
5.207e-02,-4.12,-3.88
5.210e-02,-4.28,-4.84
5.214e-02,-4.2,-3.56
5.217e-02,-4.36,-4.68
5.220e-02,-4.2,-3.8
5.223e-02,-4.28,-4.76
5.226e-02,-4.6,-3.8
5.230e-02,-4.04,-4.52
5.233e-02,-3.88,-3.64
5.236e-02,-4.2,-4.68
5.239e-02,-4.12,-3.88
5.242e-02,-4.6,-4.76
5.246e-02,-3.96,-3.72
5.249e-02,-3.48,-4.52
5.252e-02,-4.04,-3.32
5.255e-02,-4.28,-4.6
5.258e-02,-4.44,-3.88
5.262e-02,-4.04,-4.52
5.265e-02,-4.36,-3.56
5.268e-02,-3.88,-4.6
5.271e-02,-4.04,-3.64
5.274e-02,-4.28,-4.6
5.278e-02,-3.88,-3.4
5.281e-02,-4.36,-4.52
5.284e-02,-4.12,-3.48
5.287e-02,-4.2,-4.6
5.290e-02,-4.12,-3.56
5.294e-02,-4.2,-4.68
5.297e-02,-4.12,-3.48
5.300e-02,-3.88,-4.6
5.303e-02,-3.96,-3.72
5.306e-02,-4.2,-4.6
5.310e-02,-4.12,-3.64
5.313e-02,-4.04,-4.68
5.316e-02,-4.2,-3.72
5.319e-02,-3.96,-4.68
5.322e-02,-4.12,-3.56
5.326e-02,-4.04,-4.6
5.329e-02,-4.12,-3.56
5.332e-02,-3.8,-4.52
5.335e-02,-4.12,-3.72
5.338e-02,-4.28,-4.6
5.342e-02,-4.28,-3.72
5.345e-02,-4.52,-4.68
5.348e-02,-3.96,-3.64
5.351e-02,-3.96,-4.84
5.354e-02,-4.04,-3.72
5.358e-02,-4.2,-4.52
5.361e-02,-4.36,-3.72
5.364e-02,-3.88,-4.52
5.367e-02,-4.04,-3.56
5.370e-02,-4.12,-4.52
5.374e-02,-4.28,-3.8
5.377e-02,-4.2,-4.6
5.380e-02,-4.12,-3.72
5.383e-02,-4.04,-4.6
5.386e-02,-4.12,-3.88
5.390e-02,-4.36,-5
5.393e-02,-4.2,-3.88
5.396e-02,-3.8,-4.6
5.399e-02,-4.28,-3.64
5.402e-02,-4.2,-4.92
5.406e-02,-4.44,-3.72
5.409e-02,-4.04,-4.44
5.412e-02,-3.64,-3.56
5.415e-02,-3.8,-5
5.418e-02,-4.6,-3.56
5.422e-02,-4.12,-4.68
5.425e-02,-4.44,-3.64
5.428e-02,-4.12,-4.44
5.431e-02,-3.96,-3.56
5.434e-02,-4.2,-4.52
5.438e-02,-3.88,-3.64
5.441e-02,-4.04,-4.44
5.444e-02,-4.04,-3.8
5.447e-02,-3.88,-4.44
5.450e-02,-4.12,-3.64
5.454e-02,-4.2,-4.6
5.457e-02,-4.12,-3.8
5.460e-02,-4.36,-4.52
5.463e-02,-4.04,-3.64
5.466e-02,-4.52,-4.92
5.470e-02,-4.36,-3.56
5.473e-02,-3.96,-4.52
5.476e-02,-4.36,-3.72
5.479e-02,-4.2,-4.68
5.482e-02,-4.28,-3.56
5.486e-02,-4.12,-4.92
5.489e-02,-4.6,-3.72
5.492e-02,-3.72,-4.52
5.495e-02,-3.96,-3.64
5.498e-02,-3.88,-4.76
5.502e-02,-4.52,-3.72
5.505e-02,-4.2,-4.44
5.508e-02,-4.04,-3.72
5.511e-02,-4.2,-4.52
5.514e-02,-3.88,-3.72
5.518e-02,-4.2,-4.6
5.521e-02,-4.04,-3.64
5.524e-02,-4.2,-4.6
5.527e-02,-4.2,-3.72
5.530e-02,-4.12,-5
5.534e-02,-4.28,-3.64
5.537e-02,-4.2,-4.92
5.540e-02,-4.2,-3.72
5.543e-02,-4.2,-4.52
5.546e-02,-3.96,-3.72
5.550e-02,-4.44,-4.76
5.553e-02,-4.12,-3.88
5.556e-02,-4.6,-4.76
5.559e-02,-4.04,-3.56
5.562e-02,-3.88,-4.92
5.566e-02,-4.12,-3.64
5.569e-02,-4.04,-4.76
5.572e-02,-4.28,-3.8
5.575e-02,-4.12,-4.44
5.578e-02,-3.8,-3.56
5.582e-02,-4.12,-4.52
5.585e-02,-4.28,-3.88
5.588e-02,-4.44,-4.92
5.591e-02,-3.72,-3.56
5.594e-02,-4.12,-4.6
5.598e-02,-3.4,-3.32
5.601e-02,-4.2,-4.68
5.604e-02,-3.96,-3.64
5.607e-02,-4.04,-4.52
5.610e-02,-3.88,-3.64
5.614e-02,-3.88,-4.52
5.617e-02,-4.12,-3.56
5.620e-02,-4.44,-4.84
5.623e-02,-4.44,-3.8
5.626e-02,-4.12,-4.6
5.630e-02,-3.64,-3.48
5.633e-02,-3.96,-4.6
5.636e-02,-4.44,-3.72
5.639e-02,-4.12,-4.6
5.642e-02,-4.2,-3.64
5.646e-02,-3.88,-4.44
5.649e-02,-4.2,-3.56
5.652e-02,-4.52,-5
5.655e-02,-4.2,-3.72
5.658e-02,-4.36,-4.52
5.662e-02,-3.96,-3.72
5.665e-02,-4.12,-4.6
5.668e-02,-4.36,-3.72
5.671e-02,-4.6,-4.76
5.674e-02,-4.6,-3.72
5.678e-02,-4.04,-4.68
5.681e-02,-4.6,-3.72
5.684e-02,-4.44,-4.6
5.687e-02,-4.2,-3.56
5.690e-02,-4.28,-4.52
5.694e-02,-3.8,-3.56
5.697e-02,-3.96,-4.84
5.700e-02,-4.44,-3.64
5.703e-02,-4.28,-4.6
5.706e-02,-4.2,-3.72
5.710e-02,-4.2,-4.44
5.713e-02,-4.2,-3.8
5.716e-02,-4.04,-4.68
5.719e-02,-4.12,-3.8
5.722e-02,-4.2,-4.6
5.726e-02,-4.04,-3.8
5.729e-02,-4.04,-4.68
5.732e-02,-4.44,-3.8
5.735e-02,-4.04,-4.52
5.738e-02,-3.96,-3.8
5.742e-02,-4.68,-4.76
5.745e-02,-4.04,-3.64
5.748e-02,-3.96,-4.6
5.751e-02,-4.2,-3.56
5.754e-02,-4.12,-4.68
5.758e-02,-3.88,-3.72
5.761e-02,-4.12,-4.44
5.764e-02,-4.28,-3.88
5.767e-02,-4.12,-4.52
5.770e-02,-4.12,-3.72
5.774e-02,-4.04,-4.36
5.777e-02,-4.12,-3.8
5.780e-02,-4.04,-4.68
5.783e-02,-4.04,-3.56
5.786e-02,-4.2,-4.68
5.790e-02,-4.2,-3.56
5.793e-02,-4.36,-4.44
5.796e-02,-4.2,-3.56
5.799e-02,-4.52,-4.68
5.802e-02,-4.44,-3.8
5.806e-02,-3.88,-4.76
5.809e-02,-3.96,-3.72
5.812e-02,-3.8,-4.6
5.815e-02,-4.28,-3.56
5.818e-02,-4.04,-4.76
5.822e-02,-4.28,-3.88
5.825e-02,-4.04,-4.6
5.828e-02,-4.04,-3.8
5.831e-02,-4.04,-4.68
5.834e-02,-4.12,-3.8
5.838e-02,-4.36,-4.52
5.841e-02,-4.04,-3.8
5.844e-02,-4.04,-4.68
5.847e-02,-4.12,-3.72
5.850e-02,-4.36,-4.68
5.854e-02,-4.2,-3.88
5.857e-02,-3.8,-4.6
5.860e-02,-3.64,-3.4
5.863e-02,-4.2,-4.76
5.866e-02,-4.04,-3.64
5.870e-02,-4.36,-4.68
5.873e-02,-3.96,-3.72
5.876e-02,-4.04,-4.6
5.879e-02,-4.2,-3.64
5.882e-02,-4.44,-4.84
5.886e-02,-4.68,-3.88
5.889e-02,-3.88,-4.44
5.892e-02,-4.28,-3.8
5.895e-02,-4.2,-4.52
5.898e-02,-4.12,-3.8
5.902e-02,-4.12,-4.76
5.905e-02,-4.52,-3.56
5.908e-02,-3.88,-4.44
5.911e-02,-4.12,-3.72
5.914e-02,-4.12,-4.68
5.918e-02,-4.44,-3.72
5.921e-02,-4.04,-4.6
5.924e-02,-4.04,-3.64
5.927e-02,-3.64,-4.68
5.930e-02,-4.2,-3.4
5.934e-02,-4.36,-4.68
5.937e-02,-4.44,-3.8
5.940e-02,-4.36,-4.68
5.943e-02,-4.12,-3.32
5.946e-02,-4.12,-4.6
5.950e-02,-4.36,-3.72
5.953e-02,-3.96,-4.6
5.956e-02,-4.04,-3.64
5.959e-02,-3.96,-4.68
5.962e-02,-4.12,-3.56
5.966e-02,-4.52,-4.68
5.969e-02,-3.96,-3.8
5.972e-02,-4.04,-4.6
5.975e-02,-4.04,-3.88
5.978e-02,-3.8,-4.6
5.982e-02,-3.96,-3.72
5.985e-02,-4.28,-4.76
5.988e-02,-4.12,-3.8
5.991e-02,-3.88,-4.6
5.994e-02,-4.12,-3.56
5.998e-02,-4.44,-4.68
6.001e-02,-4.04,-3.8
6.004e-02,-4.52,-4.68
6.007e-02,-4.04,-3.88
6.010e-02,-4.12,-4.52
6.014e-02,-4.36,-3.64
6.017e-02,-4.28,-4.6
6.020e-02,-4.44,-3.64
6.023e-02,-3.96,-4.6
6.026e-02,-4.28,-3.48
6.030e-02,-3.96,-4.52
6.033e-02,-4.28,-3.8
6.036e-02,-4.12,-4.44
6.039e-02,-3.88,-3.32
6.042e-02,-4.04,-4.52
6.046e-02,-4.28,-3.4
6.049e-02,-3.88,-4.76
6.052e-02,-4.12,-3.56
6.055e-02,-4.12,-4.6
6.058e-02,-4.2,-3.8
6.062e-02,-3.96,-4.44
6.065e-02,-4.12,-3.8
6.068e-02,-4.12,-4.68
6.071e-02,-4.12,-3.88
6.074e-02,-4.04,-4.28
6.078e-02,-4.04,-3.56
6.081e-02,-4.04,-4.52
6.084e-02,-4.2,-3.8
6.087e-02,-4.12,-4.36
6.090e-02,-4.12,-3.88
6.094e-02,-4.28,-4.68
6.097e-02,-4.2,-3.88
6.100e-02,-4.36,-4.68
6.103e-02,-4.2,-3.48
6.106e-02,-4.12,-4.36
6.110e-02,-4.04,-3.48
6.113e-02,-4.2,-4.68
6.116e-02,-4.12,-3.88
6.119e-02,-4.2,-4.6
6.122e-02,-4.12,-3.72
6.126e-02,-3.96,-4.52
6.129e-02,-4.28,-3.8
6.132e-02,-4.28,-4.84
6.135e-02,-3.88,-3.72
6.138e-02,-4.36,-4.76
6.142e-02,-4.2,-3.72
6.145e-02,-4.36,-4.52
6.148e-02,-4.12,-3.64
6.151e-02,-4.28,-4.68
6.154e-02,-4.2,-3.8
6.158e-02,-3.96,-4.52
6.161e-02,-4.04,-3.56
6.164e-02,-4.12,-4.6
6.167e-02,-4.12,-3.88
6.170e-02,-4.28,-4.44
6.174e-02,-3.88,-3.72
6.177e-02,-4.2,-4.68
6.180e-02,-4.12,-3.96
6.183e-02,-4.44,-4.6
6.186e-02,-4.2,-3.88
6.190e-02,-3.96,-4.52
6.193e-02,-4.2,-3.8
6.196e-02,-4.12,-4.6
6.199e-02,-4.36,-3.88
6.202e-02,-4.52,-4.68
6.206e-02,-3.8,-3.72
6.209e-02,-3.88,-4.52
6.212e-02,-4.44,-3.72
6.215e-02,-3.88,-4.68
6.218e-02,-4.28,-3.64
6.222e-02,-4.12,-4.44
6.225e-02,-3.96,-3.56
6.228e-02,-4.36,-4.6
6.231e-02,-4.52,-3.72
6.234e-02,-4.04,-4.44
6.238e-02,-4.2,-3.64
6.241e-02,-4.04,-4.28
6.244e-02,-3.96,-3.48
6.247e-02,-4.12,-4.68
6.250e-02,-4.36,-3.96
6.254e-02,-4.28,-4.44
6.257e-02,-4.12,-3.8
6.260e-02,-4.12,-4.68
6.263e-02,-4.12,-3.72
6.266e-02,-3.88,-4.6
6.270e-02,-4.2,-3.64
6.273e-02,-3.72,-4.36
6.276e-02,-3.88,-3.56
6.279e-02,-4.2,-4.6
6.282e-02,-3.8,-3.72
6.286e-02,-4.12,-4.6
6.289e-02,-4.36,-3.56
6.292e-02,-3.48,-4.68
6.295e-02,-4.36,-3.24
6.298e-02,-4.44,-4.76
6.302e-02,-3.72,-3.64
6.305e-02,-4.2,-4.6
6.308e-02,-3.96,-3.56
6.311e-02,-4.2,-4.6
6.314e-02,-4.2,-3.56
6.318e-02,-3.8,-4.44
6.321e-02,-3.96,-3.64
6.324e-02,-3.8,-4.44
6.327e-02,-4.12,-3.64
6.330e-02,-4.28,-4.6
6.334e-02,-4.36,-3.8
6.337e-02,-4.2,-4.44
6.340e-02,-3.88,-3.56
6.343e-02,-3.8,-4.92
6.346e-02,-4.36,-3.64
6.350e-02,-4.52,-4.6
6.353e-02,-4.04,-3.72
6.356e-02,-3.72,-4.68
6.359e-02,-4.44,-3.56
6.362e-02,-4.2,-4.6
6.366e-02,-4.2,-3.64
6.369e-02,-4.28,-4.6
6.372e-02,-4.44,-3.8
6.375e-02,-3.8,-4.28
6.378e-02,-4.04,-3.64
6.382e-02,-4.12,-4.76
6.385e-02,-4.04,-3.8
6.388e-02,-4.12,-4.28
6.391e-02,-4.12,-3.24
6.394e-02,-4.04,-4.6
6.398e-02,-4.36,-3.8
6.401e-02,-3.96,-4.44
6.404e-02,-3.8,-3.72
6.407e-02,-4.04,-4.68
6.410e-02,-4.04,-3.72
6.414e-02,-4.28,-4.84
6.417e-02,-4.44,-3.72
6.420e-02,-4.28,-4.52
6.423e-02,-3.88,-3.72
6.426e-02,-3.96,-4.68
6.430e-02,-4.44,-3.8
6.433e-02,-4.28,-4.76
6.436e-02,-4.12,-3.56
6.439e-02,-3.56,-4.52
6.442e-02,-4.44,-3.4
6.446e-02,-4.2,-4.68
6.449e-02,-4.36,-3.56
6.452e-02,-4.12,-4.44
6.455e-02,-4.12,-3.64
6.458e-02,-3.88,-4.52
6.462e-02,-4.04,-3.8
6.465e-02,-4.28,-4.52
6.468e-02,-4.12,-3.88
6.471e-02,-4.2,-4.6
6.474e-02,-4.36,-3.72
6.478e-02,-4.36,-4.92
6.481e-02,-4.68,-3.88
6.484e-02,-3.88,-4.52
6.487e-02,-3.96,-3.8
6.490e-02,-4.36,-4.6
6.494e-02,-3.96,-3.8
6.497e-02,-4.52,-4.76
6.500e-02,-4.2,-3.8
6.503e-02,-4.2,-4.36
6.506e-02,-3.88,-3.72
6.510e-02,-4.28,-4.6
6.513e-02,-4.2,-3.72
6.516e-02,-4.28,-4.6
6.519e-02,-3.8,-3.48
6.522e-02,-4.28,-4.44
6.526e-02,-4.12,-3.72
6.529e-02,-4.04,-5
6.532e-02,-4.12,-3.64
6.535e-02,-4.04,-4.68
6.538e-02,-3.8,-3.56
6.542e-02,-4.12,-4.68
6.545e-02,-4.52,-3.72
6.548e-02,-3.8,-4.36
6.551e-02,-4.12,-3.72
6.554e-02,-4.04,-4.84
6.558e-02,-4.12,-3.8
6.561e-02,-4.2,-4.68
6.564e-02,-4.28,-3.88
6.567e-02,-3.64,-4.6
6.570e-02,-4.12,-3.48
6.574e-02,-3.96,-4.76
6.577e-02,-4.2,-3.88
6.580e-02,-4.2,-4.84
6.583e-02,-4.2,-3.72
6.586e-02,-4.04,-4.44
6.590e-02,-4.2,-3.88
6.593e-02,-4.52,-4.68
6.596e-02,-4.28,-3.88
6.599e-02,-3.96,-4.68
6.602e-02,-3.64,-3.48
6.606e-02,-3.96,-4.44
6.609e-02,-4.04,-3.56
6.612e-02,-3.96,-4.68
6.615e-02,-4.04,-3.8
6.618e-02,-3.8,-4.28
6.622e-02,-3.96,-3.64
6.625e-02,-3.88,-4.6
6.628e-02,-4.36,-3.72
6.631e-02,-4.28,-4.68
6.634e-02,-4.52,-3.88
6.638e-02,-3.8,-4.36
6.641e-02,-3.8,-3.64
6.644e-02,-4.04,-4.6
6.647e-02,-4.2,-3.8
6.650e-02,-4.44,-4.6
6.654e-02,-4.12,-3.8
6.657e-02,-4.12,-4.68
6.660e-02,-3.96,-3.8
6.663e-02,-4.44,-4.52
6.666e-02,-4.12,-3.88
6.670e-02,-4.04,-4.84
6.673e-02,-4.28,-3.72
6.676e-02,-4.04,-4.68
6.679e-02,-4.52,-3.8
6.682e-02,-4.28,-4.52
6.686e-02,-3.72,-3.56
6.689e-02,-4.12,-4.6
6.692e-02,-4.12,-3.8
6.695e-02,-4.44,-4.76
6.698e-02,-4.52,-3.64
6.702e-02,-4.2,-4.52
6.705e-02,-4.36,-3.64
6.708e-02,-3.96,-4.52
6.711e-02,-4.36,-3.8
6.714e-02,-4.04,-4.76
6.718e-02,-4.12,-3.64
6.721e-02,-4.04,-4.6
6.724e-02,-4.12,-3.72
6.727e-02,-4.36,-4.6
6.730e-02,-4.12,-3.72
6.734e-02,-3.96,-4.28
6.737e-02,-4.12,-3.32
6.740e-02,-4.12,-4.52
6.743e-02,-4.2,-3.88
6.746e-02,-4.52,-4.84
6.750e-02,-3.8,-3.64
6.753e-02,-3.88,-4.76
6.756e-02,-3.96,-3.48
6.759e-02,-4.12,-4.76
6.762e-02,-4.2,-3.8
6.766e-02,-3.96,-4.52
6.769e-02,-3.64,-3.48
6.772e-02,-4.2,-4.76
6.775e-02,-4.68,-3.88
6.778e-02,-4.2,-4.52
6.782e-02,-4.12,-3.8
6.785e-02,-3.88,-4.44
6.788e-02,-4.04,-3.56
6.791e-02,-4.44,-4.76
6.794e-02,-4.36,-3.8
6.798e-02,-3.8,-4.28
6.801e-02,-4.12,-3.64
6.804e-02,-3.72,-4.44
6.807e-02,-4.12,-3.56
6.810e-02,-3.88,-4.84
6.814e-02,-4.04,-3.64
6.817e-02,-4.36,-4.92
6.820e-02,-4.28,-3.72
6.823e-02,-3.96,-4.76
6.826e-02,-4.6,-3.72
6.830e-02,-3.96,-4.44
6.833e-02,-4.12,-3.8
6.836e-02,-4.2,-4.6
6.839e-02,-3.8,-3.72
6.842e-02,-4.36,-4.6
6.846e-02,-4.12,-3.8
6.849e-02,-3.88,-4.52
6.852e-02,-3.8,-3.64
6.855e-02,-4.36,-4.6
6.858e-02,-4.36,-3.8
6.862e-02,-4.2,-4.6
6.865e-02,-4.12,-3.8
6.868e-02,-3.8,-4.52
6.871e-02,-4.28,-3.72
6.874e-02,-4.12,-4.52
6.878e-02,-4.28,-3.72
6.881e-02,-4.36,-4.52
6.884e-02,-4.12,-3.88
6.887e-02,-3.72,-4.52
6.890e-02,-4.36,-3.48
6.894e-02,-4.6,-4.92
6.897e-02,-4.28,-3.72
6.900e-02,-3.96,-4.36
6.903e-02,-4.2,-3.64
6.906e-02,-4.52,-4.84
6.910e-02,-4.04,-3.48
6.913e-02,-4.2,-5
6.916e-02,-3.72,-3.56
6.919e-02,-4.12,-4.6
6.922e-02,-4.28,-3.8
6.926e-02,-4.12,-4.76
6.929e-02,-4.12,-3.88
6.932e-02,-3.96,-4.52
6.935e-02,-4.36,-3.8
6.938e-02,-4.28,-4.6
6.942e-02,-4.04,-3.8
6.945e-02,-3.96,-4.52
6.948e-02,-4.04,-3.88
6.951e-02,-3.56,-4.52
6.954e-02,-4.04,-3.48
6.958e-02,-4.36,-4.68
6.961e-02,-4.2,-3.88
6.964e-02,-4.12,-4.36
6.967e-02,-4.04,-3.64
6.970e-02,-4.12,-4.76
6.974e-02,-4.2,-3.88
6.977e-02,-4.28,-4.52
6.980e-02,-4.28,-3.56
6.983e-02,-3.8,-4.76
6.986e-02,-4.12,-3.24
6.990e-02,-4.04,-4.6
6.993e-02,-4.36,-3.64
6.996e-02,-4.12,-4.52
6.999e-02,-3.96,-3.72
7.002e-02,-3.88,-4.76
7.006e-02,-4.52,-3.64
7.009e-02,-4.28,-4.52
7.012e-02,-4.36,-3.88
7.015e-02,-4.2,-4.44
7.018e-02,-3.96,-3.64
7.022e-02,-4.04,-4.76
7.025e-02,-4.2,-3.88
7.028e-02,-4.2,-4.52
7.031e-02,-4.36,-3.56
7.034e-02,-3.96,-4.68
7.038e-02,-4.52,-3.64
7.041e-02,-4.28,-4.52
7.044e-02,-4.12,-3.72
7.047e-02,-3.8,-4.44
7.050e-02,-3.96,-3.56
7.054e-02,-3.96,-4.6
7.057e-02,-4.28,-3.8
7.060e-02,-4.52,-4.76
7.063e-02,-3.88,-3.56
7.066e-02,-3.8,-4.44
7.070e-02,-4.2,-3.48
7.073e-02,-4.52,-4.6
7.076e-02,-4.04,-3.88
7.079e-02,-3.88,-4.52
7.082e-02,-3.96,-3.56
7.086e-02,-3.96,-4.68
7.089e-02,-4.44,-3.8
7.092e-02,-4.2,-4.68
7.095e-02,-4.04,-3.88
7.098e-02,-4.04,-4.68
7.102e-02,-4.2,-3.8
7.105e-02,-4.2,-4.6
7.108e-02,-4.36,-3.72
7.111e-02,-3.8,-4.44
7.114e-02,-3.8,-3.64
7.118e-02,-3.96,-4.76
7.121e-02,-4.44,-3.64
7.124e-02,-4.6,-4.84
7.127e-02,-4.44,-3.72
7.130e-02,-3.88,-4.28
7.134e-02,-3.96,-3.64
7.137e-02,-4.6,-4.76
7.140e-02,-4.2,-3.88
7.143e-02,-3.88,-4.6
7.146e-02,-4.2,-3.72
7.150e-02,-4.12,-4.76
7.153e-02,-4.36,-3.8
7.156e-02,-4.04,-4.68
7.159e-02,-4.52,-3.88
7.162e-02,-3.88,-4.52
7.166e-02,-4.04,-3.8
7.169e-02,-4.36,-4.68
7.172e-02,-4.2,-3.88
7.175e-02,-4.2,-4.52
7.178e-02,-4.04,-3.72
7.182e-02,-4.04,-4.76
7.185e-02,-4.04,-3.8
7.188e-02,-4.2,-4.76
7.191e-02,-3.88,-3.64
7.194e-02,-3.96,-4.44
7.198e-02,-4.04,-3.72
7.201e-02,-3.64,-4.76
7.204e-02,-4.68,-3.48
7.207e-02,-4.12,-4.6
7.210e-02,-4.04,-3.72
7.214e-02,-4.28,-4.52
7.217e-02,-4.04,-3.72
7.220e-02,-3.72,-4.76
7.223e-02,-4.2,-3.64
7.226e-02,-3.96,-4.52
7.230e-02,-4.2,-3.72
7.233e-02,-3.8,-4.36
7.236e-02,-4.12,-3.48
7.239e-02,-4.36,-4.76
7.242e-02,-4.28,-3.88
7.246e-02,-4.28,-4.44
7.249e-02,-3.96,-3.56
7.252e-02,-4.12,-4.6
7.255e-02,-4.44,-3.64
7.258e-02,-3.88,-4.44
7.262e-02,-3.72,-3.64
7.265e-02,-4.2,-4.36
7.268e-02,-3.88,-3.8
7.271e-02,-4.2,-4.68
7.274e-02,-4.28,-3.72
7.278e-02,-4.12,-4.44
7.281e-02,-3.88,-3.32
7.284e-02,-4.44,-4.6
7.287e-02,-4.28,-3.88
7.290e-02,-4.2,-4.92
7.294e-02,-4.2,-3.4
7.297e-02,-3.96,-4.52
7.300e-02,-4.12,-3.72
7.303e-02,-4.2,-4.76
7.306e-02,-4.04,-3.72
7.310e-02,-4.04,-4.68
7.313e-02,-4.36,-3.8
7.316e-02,-4.44,-4.68
7.319e-02,-4.36,-3.8
7.322e-02,-4.28,-4.92
7.326e-02,-3.88,-3.8
7.329e-02,-4.04,-4.36
7.332e-02,-3.96,-3.8
7.335e-02,-4.12,-4.68
7.338e-02,-4.52,-3.56
7.342e-02,-4.2,-4.84
7.345e-02,-4.12,-3.64
7.348e-02,-4.04,-4.76
7.351e-02,-4.44,-3.8
7.354e-02,-4.12,-4.68
7.358e-02,-4.36,-3.96
7.361e-02,-4.04,-4.68
7.364e-02,-3.56,-3.48
7.367e-02,-3.88,-4.44
7.370e-02,-4.04,-3.4
7.374e-02,-3.8,-4.36
7.377e-02,-4.04,-3.48
7.380e-02,-4.52,-4.68
7.383e-02,-4.04,-3.72
7.386e-02,-4.2,-4.6
7.390e-02,-4.52,-3.8
7.393e-02,-4.2,-4.52
7.396e-02,-4.2,-3.72
7.399e-02,-3.96,-4.52
7.402e-02,-4.2,-3.8
7.406e-02,-4.12,-4.76
7.409e-02,-4.2,-3.88
7.412e-02,-3.88,-4.44
7.415e-02,-4.28,-3.64
7.418e-02,-4.04,-4.68
7.422e-02,-4.28,-3.8
7.425e-02,-4.12,-4.68
7.428e-02,-3.72,-3.56
7.431e-02,-3.88,-4.36
7.434e-02,-4.12,-3.48
7.438e-02,-4.36,-4.52
7.441e-02,-4.2,-3.72
7.444e-02,-4.2,-4.68
7.447e-02,-4.2,-3.56
7.450e-02,-4.52,-4.68
7.454e-02,-4.28,-3.8
7.457e-02,-4.2,-4.44
7.460e-02,-3.96,-3.64
7.463e-02,-4.04,-4.52
7.466e-02,-4.28,-3.56
7.470e-02,-4.52,-4.68
7.473e-02,-4.44,-3.88
7.476e-02,-4.44,-4.6
7.479e-02,-3.96,-3.56
7.482e-02,-4.2,-4.52
7.486e-02,-4.04,-3.56
7.489e-02,-4.12,-4.68
7.492e-02,-4.28,-3.72
7.495e-02,-3.88,-4.68
7.498e-02,-4.44,-3.64
7.502e-02,-4.2,-4.68
7.505e-02,-4.36,-3.88
7.508e-02,-4.04,-4.44
7.511e-02,-4.12,-3.88
7.514e-02,-3.56,-4.36
7.518e-02,-4.28,-3.48
7.521e-02,-4.2,-4.68
7.524e-02,-4.12,-3.8
7.527e-02,-3.72,-4.68
7.530e-02,-4.2,-3.56
7.534e-02,-4.2,-4.76
7.537e-02,-4.04,-3.8
7.540e-02,-4.2,-4.76
7.543e-02,-4.36,-3.88
7.546e-02,-4.04,-4.76
7.550e-02,-4.36,-3.8
7.553e-02,-4.2,-4.44
7.556e-02,-4.28,-3.64
7.559e-02,-4.04,-4.6
7.562e-02,-4.28,-3.8
7.566e-02,-4.2,-4.92
7.569e-02,-4.52,-3.88
7.572e-02,-3.88,-4.6
7.575e-02,-4.28,-3.56
7.578e-02,-4.2,-4.6
7.582e-02,-4.36,-3.48
7.585e-02,-4.28,-4.6
7.588e-02,-4.2,-3.56
7.591e-02,-4.36,-4.6
7.594e-02,-4.12,-3.8
7.598e-02,-3.96,-4.68
7.601e-02,-4.28,-3.8
7.604e-02,-3.96,-4.76
7.607e-02,-3.96,-3.72
7.610e-02,-3.96,-4.6
7.614e-02,-4.2,-3.8
7.617e-02,-3.88,-4.76
7.620e-02,-3.88,-3.8
7.623e-02,-4.28,-4.76
7.626e-02,-4.04,-3.72
7.630e-02,-4.2,-4.76
7.633e-02,-4.6,-3.56
7.636e-02,-4.12,-4.68
7.639e-02,-4.28,-3.8
7.642e-02,-4.28,-4.36
7.646e-02,-4.04,-3.56
7.649e-02,-4.28,-4.52
7.652e-02,-4.2,-3.64
7.655e-02,-4.44,-4.68
7.658e-02,-3.88,-3.64
7.662e-02,-4.04,-4.68
7.665e-02,-4.36,-3.88
7.668e-02,-4.28,-4.76
7.671e-02,-4.28,-4.04
7.674e-02,-4.44,-4.6
7.678e-02,-4.2,-3.96
7.681e-02,-4.44,-4.68
7.684e-02,-4.12,-3.72
7.687e-02,-4.2,-4.84
7.690e-02,-4.2,-3.72
7.694e-02,-3.96,-4.6
7.697e-02,-4.12,-3.8
7.700e-02,-4.36,-4.68
7.703e-02,-4.2,-3.88
7.706e-02,-3.88,-4.6
7.710e-02,-4.12,-3.72
7.713e-02,-3.96,-4.76
7.716e-02,-4.44,-3.56
7.719e-02,-4.6,-4.76
7.722e-02,-4.2,-3.96
7.726e-02,-3.96,-4.68
7.729e-02,-4.12,-3.64
7.732e-02,-4.44,-4.76
7.735e-02,-4.2,-3.8
7.738e-02,-4.12,-4.44
7.742e-02,-4.04,-3.56
7.745e-02,-3.88,-4.6
7.748e-02,-4.2,-3.56
7.751e-02,-4.2,-4.6
7.754e-02,-3.96,-3.72
7.758e-02,-3.8,-4.68
7.761e-02,-3.8,-3.64
7.764e-02,-4.36,-4.84
7.767e-02,-4.36,-3.88
7.770e-02,-4.04,-4.84
7.774e-02,-3.96,-3.8
7.777e-02,-3.96,-4.44
7.780e-02,-4.2,-3.8
7.783e-02,-4.44,-4.6
7.786e-02,-3.88,-3.8
7.790e-02,-4.28,-4.52
7.793e-02,-3.8,-3.72
7.796e-02,-3.96,-4.76
7.799e-02,-4.36,-3.8
7.802e-02,-4.2,-4.68
7.806e-02,-4.2,-3.72
7.809e-02,-4.36,-4.52
7.812e-02,-3.88,-3.72
7.815e-02,-4.2,-4.52
7.818e-02,-4.12,-3.8
7.822e-02,-3.88,-4.44
7.825e-02,-4.12,-3.8
7.828e-02,-4.36,-4.6
7.831e-02,-4.36,-3.64
7.834e-02,-4.2,-4.6
7.838e-02,-4.36,-3.8
7.841e-02,-3.96,-4.52
7.844e-02,-3.88,-3.72
7.847e-02,-4.2,-4.68
7.850e-02,-3.8,-3.72
7.854e-02,-3.88,-4.92
7.857e-02,-3.88,-3.72
7.860e-02,-3.88,-4.68
7.863e-02,-4.6,-3.72
7.866e-02,-4.28,-4.44
7.870e-02,-4.2,-3.8
7.873e-02,-3.88,-4.6
7.876e-02,-4.2,-3.56
7.879e-02,-3.8,-4.6
7.882e-02,-4.2,-3.56
7.886e-02,-3.88,-4.44
7.889e-02,-3.88,-3.8
7.892e-02,-4.04,-4.76
7.895e-02,-4.28,-3.8
7.898e-02,-4.04,-4.44
7.902e-02,-4.28,-3.56
7.905e-02,-4.36,-4.52
7.908e-02,-4.04,-3.72
7.911e-02,-4.28,-4.6
7.914e-02,-4.2,-3.88
7.918e-02,-4.36,-4.68
7.921e-02,-4.2,-3.88
7.924e-02,-4.04,-4.68
7.927e-02,-4.12,-3.64
7.930e-02,-4.12,-4.84
7.934e-02,-4.44,-4.04
7.937e-02,-4.44,-4.76
7.940e-02,-4.2,-3.72
7.943e-02,-4.2,-4.68
7.946e-02,-4.44,-3.56
7.950e-02,-4.28,-4.68
7.953e-02,-4.28,-3.8
7.956e-02,-4.28,-4.52
7.959e-02,-3.88,-3.8
7.962e-02,-4.2,-4.6
7.966e-02,-4.04,-3.8
7.969e-02,-4.36,-4.68
7.972e-02,-4.2,-3.8
7.975e-02,-3.88,-4.52
7.978e-02,-4.44,-3.72
7.982e-02,-4.36,-4.76
7.985e-02,-3.88,-3.8
7.988e-02,-4.12,-4.28
7.991e-02,-3.56,-3.4
7.994e-02,-4.12,-4.6
7.998e-02,-4.04,-3.4
8.001e-02,-4.36,-4.52
8.004e-02,-4.04,-3.56
8.007e-02,-4.28,-4.68
8.010e-02,-4.2,-3.8
8.014e-02,-4.12,-4.68
8.017e-02,-4.04,-3.8
8.020e-02,-4.2,-4.44
8.023e-02,-4.2,-3.56
8.026e-02,-4.04,-4.52
8.030e-02,-4.36,-3.72
8.033e-02,-4.28,-4.52
8.036e-02,-4.12,-3.88
8.039e-02,-4.04,-4.44
8.042e-02,-4.04,-3.64
8.046e-02,-3.96,-4.76
8.049e-02,-4.36,-3.72
8.052e-02,-4.2,-4.52
8.055e-02,-3.8,-3.64
8.058e-02,-3.88,-4.36
8.062e-02,-4.04,-3.48
8.065e-02,-4.52,-4.76
8.068e-02,-4.6,-3.8
8.071e-02,-3.96,-4.52
8.074e-02,-4.04,-3.56
8.078e-02,-4.12,-4.52
8.081e-02,-3.88,-3.56
8.084e-02,-4.12,-4.6
8.087e-02,-3.8,-3.64
8.090e-02,-4.2,-4.44
8.094e-02,-4.12,-3.8
8.097e-02,-4.44,-4.68
8.100e-02,-4.2,-3.88
8.103e-02,-4.04,-4.6
8.106e-02,-4.04,-3.72
8.110e-02,-4.04,-4.76
8.113e-02,-4.28,-3.72
8.116e-02,-4.2,-4.6
8.119e-02,-4.28,-3.8
8.122e-02,-4.04,-4.52
8.126e-02,-3.96,-3.56
8.129e-02,-4.04,-4.6
8.132e-02,-4.36,-3.72
8.135e-02,-4.36,-4.52
8.138e-02,-4.28,-3.56
8.142e-02,-4.12,-4.44
8.145e-02,-4.12,-3.64
8.148e-02,-4.04,-4.68
8.151e-02,-3.96,-3.8
8.154e-02,-3.88,-4.44
8.158e-02,-4.12,-3.72
8.161e-02,-3.72,-4.44
8.164e-02,-4.12,-3.64
8.167e-02,-4.2,-4.76
8.170e-02,-4.28,-3.8
8.174e-02,-4.44,-4.52
8.177e-02,-4.12,-3.56
8.180e-02,-4.04,-4.68
8.183e-02,-4.12,-3.72
8.186e-02,-4.2,-4.44
8.190e-02,-3.56,-3.48
8.193e-02,-4.28,-4.6
8.196e-02,-4.44,-3.96
8.199e-02,-4.2,-4.68
8.202e-02,-3.72,-3.56
8.206e-02,-4.2,-4.6
8.209e-02,-3.8,-3.72
8.212e-02,-4.36,-4.68
8.215e-02,-4.36,-3.96
8.218e-02,-4.2,-4.76
8.222e-02,-3.96,-3.72
8.225e-02,-4.6,-4.76
8.228e-02,-4.2,-3.72
8.231e-02,-4.12,-4.68
8.234e-02,-4.2,-3.64
8.238e-02,-4.04,-4.6
8.241e-02,-4.44,-3.64
8.244e-02,-4.28,-4.84
8.247e-02,-4.52,-3.88
8.250e-02,-4.28,-4.52
8.254e-02,-3.96,-3.64
8.257e-02,-4.04,-4.76
8.260e-02,-4.68,-3.72
8.263e-02,-4.52,-4.76
8.266e-02,-3.96,-3.72
8.270e-02,-4.68,-4.84
8.273e-02,-4.2,-3.64
8.276e-02,-4.12,-4.68
8.279e-02,-4.44,-3.8
8.282e-02,-4.28,-4.68
8.286e-02,-4.2,-3.88
8.289e-02,-4.28,-4.52
8.292e-02,-4.2,-3.64
8.295e-02,-4.12,-5
8.298e-02,-4.6,-3.72
8.302e-02,-3.96,-4.68
8.305e-02,-3.88,-3.8
8.308e-02,-4.04,-4.76
8.311e-02,-4.68,-3.88
8.314e-02,-3.96,-4.44
8.318e-02,-4.12,-3.56
8.321e-02,-3.96,-4.6
8.324e-02,-3.8,-3.64
8.327e-02,-4.12,-4.6
8.330e-02,-4.2,-3.64
8.334e-02,-3.96,-4.52
8.337e-02,-4.2,-3.64
8.340e-02,-4.12,-4.44
8.343e-02,-4.2,-3.8
8.346e-02,-4.12,-4.76
8.350e-02,-4.2,-3.72
8.353e-02,-4.28,-4.6
8.356e-02,-4.04,-3.8
8.359e-02,-4.04,-4.44
8.362e-02,-4.04,-3.8
8.366e-02,-4.36,-4.68
8.369e-02,-4.04,-3.88
8.372e-02,-4.04,-4.52
8.375e-02,-4.28,-3.72
8.378e-02,-4.36,-4.68
8.382e-02,-4.04,-3.72
8.385e-02,-3.88,-4.76
8.388e-02,-4.44,-3.64
8.391e-02,-4.04,-4.68
8.394e-02,-4.44,-3.88
8.398e-02,-3.8,-4.76
8.401e-02,-4.28,-3.48
8.404e-02,-3.88,-4.44
8.407e-02,-4.12,-3.64
8.410e-02,-3.88,-4.52
8.414e-02,-4.12,-3.72
8.417e-02,-4.2,-4.52
8.420e-02,-3.8,-3.72
8.423e-02,-4.36,-4.6
8.426e-02,-4.28,-3.88
8.430e-02,-4.36,-4.6
8.433e-02,-3.96,-3.64
8.436e-02,-3.96,-4.68
8.439e-02,-4.44,-3.72
8.442e-02,-4.28,-4.76
8.446e-02,-4.12,-3.88
8.449e-02,-4.2,-4.6
8.452e-02,-4.04,-3.4
8.455e-02,-3.88,-4.52
8.458e-02,-4.36,-3.8
8.462e-02,-4.36,-4.76
8.465e-02,-4.12,-3.8
8.468e-02,-4.2,-4.92
8.471e-02,-4.12,-3.72
8.474e-02,-4.28,-4.52
8.478e-02,-4.12,-3.72
8.481e-02,-4.36,-4.52
8.484e-02,-3.8,-3.72
8.487e-02,-4.12,-4.6
8.490e-02,-3.88,-3.64
8.494e-02,-4.12,-4.6
8.497e-02,-4.44,-3.8
8.500e-02,-4.12,-4.76
8.503e-02,-4.28,-3.72
8.506e-02,-4.52,-4.68
8.510e-02,-4.28,-3.72
8.513e-02,-4.04,-4.68
8.516e-02,-4.04,-3.8
8.519e-02,-4.2,-4.76
8.522e-02,-3.72,-3.48
8.526e-02,-3.88,-4.68
8.529e-02,-4.04,-3.72
8.532e-02,-4.6,-4.68
8.535e-02,-3.96,-3.56
8.538e-02,-4.36,-4.6
8.542e-02,-4.36,-3.56
8.545e-02,-4.28,-4.52
8.548e-02,-4.04,-3.64
8.551e-02,-3.96,-4.44
8.554e-02,-4.12,-3.64
8.558e-02,-4.12,-5.08
8.561e-02,-4.12,-3.8
8.564e-02,-4.12,-5
8.567e-02,-4.28,-3.72
8.570e-02,-4.2,-4.6
8.574e-02,-3.96,-3.4
8.577e-02,-4.52,-4.68
8.580e-02,-4.12,-3.48
8.583e-02,-4.04,-4.44
8.586e-02,-4.28,-3.72
8.590e-02,-3.8,-4.76
8.593e-02,-4.28,-3.64
8.596e-02,-4.52,-4.68
8.599e-02,-4.52,-3.72
8.602e-02,-4.04,-4.68
8.606e-02,-4.12,-3.64
8.609e-02,-4.44,-4.84
8.612e-02,-4.28,-3.64
8.615e-02,-3.88,-4.36
8.618e-02,-3.96,-3.48
8.622e-02,-4.04,-4.52
8.625e-02,-4.04,-3.72
8.628e-02,-4.36,-4.76
8.631e-02,-4.28,-3.8
8.634e-02,-4.2,-4.44
8.638e-02,-3.96,-3.64
8.641e-02,-4.28,-4.76
8.644e-02,-4.44,-3.96
8.647e-02,-3.8,-4.76
8.650e-02,-4.68,-3.4
8.654e-02,-3.8,-4.44
8.657e-02,-3.96,-3.48
8.660e-02,-3.88,-4.6
8.663e-02,-4.12,-3.8
8.666e-02,-4.28,-4.52
8.670e-02,-3.88,-3.64
8.673e-02,-4.44,-4.68
8.676e-02,-4.2,-3.88
8.679e-02,-3.88,-4.6
8.682e-02,-3.88,-3.72
8.686e-02,-4.04,-4.6
8.689e-02,-4.36,-3.88
8.692e-02,-4.36,-4.76
8.695e-02,-4.04,-3.88
8.698e-02,-4.28,-4.6
8.702e-02,-3.88,-3.64
8.705e-02,-4.12,-4.76
8.708e-02,-4.12,-3.8
8.711e-02,-3.96,-4.84
8.714e-02,-4.2,-3.8
8.718e-02,-4.2,-4.68
8.721e-02,-4.52,-3.64
8.724e-02,-4.6,-4.76
8.727e-02,-4.04,-3.88
8.730e-02,-3.96,-4.6
8.734e-02,-4.2,-3.64
8.737e-02,-3.96,-4.52
8.740e-02,-4.12,-3.8
8.743e-02,-4.44,-4.52
8.746e-02,-4.2,-3.72
8.750e-02,-4.12,-4.92
8.753e-02,-4.44,-3.48
8.756e-02,-4.28,-4.84
8.759e-02,-4.44,-3.8
8.762e-02,-4.44,-4.68
8.766e-02,-4.04,-3.88
8.769e-02,-4.04,-4.52
8.772e-02,-4.28,-3.48
8.775e-02,-4.28,-4.68
8.778e-02,-4.36,-3.88
8.782e-02,-4.36,-4.44
8.785e-02,-4.2,-3.56
8.788e-02,-3.96,-4.6
8.791e-02,-3.96,-3.64
8.794e-02,-4.36,-4.76
8.798e-02,-4.28,-3.96
8.801e-02,-4.2,-4.76
8.804e-02,-4.28,-3.72
8.807e-02,-4.12,-4.76
8.810e-02,-4.36,-3.8
8.814e-02,-4.2,-4.52
8.817e-02,-4.12,-3.4
8.820e-02,-4.44,-4.84
8.823e-02,-4.04,-3.8
8.826e-02,-4.28,-4.76
8.830e-02,-4.36,-3.88
8.833e-02,-3.64,-4.28
8.836e-02,-3.96,-3.48
8.839e-02,-3.88,-4.6
8.842e-02,-4.36,-3.8
8.846e-02,-4.2,-4.52
8.849e-02,-3.72,-3.56
8.852e-02,-4.2,-4.6
8.855e-02,-4.2,-3.8
8.858e-02,-4.2,-4.52
8.862e-02,-4.12,-3.8
8.865e-02,-4.28,-4.52
8.868e-02,-4.04,-3.64
8.871e-02,-4.6,-4.68
8.874e-02,-4.52,-3.96
8.878e-02,-4.44,-5.08
8.881e-02,-4.52,-3.56
8.884e-02,-4.12,-4.44
8.887e-02,-4.04,-3.64
8.890e-02,-4.28,-4.76
8.894e-02,-4.12,-3.64
8.897e-02,-3.88,-4.52
8.900e-02,-3.96,-3.8
8.903e-02,-4.04,-4.6
8.906e-02,-4.04,-3.64
8.910e-02,-4.6,-4.76
8.913e-02,-4.04,-3.64
8.916e-02,-4.68,-4.76
8.919e-02,-4.04,-3.64
8.922e-02,-4.04,-4.76
8.926e-02,-4.36,-3.88
8.929e-02,-4.28,-4.6
8.932e-02,-4.04,-3.64
8.935e-02,-4.12,-4.76
8.938e-02,-4.12,-3.88
8.942e-02,-4.2,-4.6
8.945e-02,-4.12,-3.8
8.948e-02,-4.2,-4.44
8.951e-02,-3.8,-3.64
8.954e-02,-4.36,-4.84
8.958e-02,-4.44,-3.8
8.961e-02,-4.12,-4.52
8.964e-02,-4.2,-3.8
8.967e-02,-4.04,-4.84
8.970e-02,-3.96,-3.64
8.974e-02,-4.28,-4.68
8.977e-02,-3.88,-3.64
8.980e-02,-4.44,-4.6
8.983e-02,-4.04,-3.72
8.986e-02,-4.36,-4.76
8.990e-02,-3.96,-3.64
8.993e-02,-4.28,-4.44
8.996e-02,-3.88,-3.72
8.999e-02,-4.12,-4.52
9.002e-02,-4.04,-3.64
9.006e-02,-4.2,-4.52
9.009e-02,-4.12,-3.88
9.012e-02,-4.2,-4.6
9.015e-02,-4.12,-3.8
9.018e-02,-4.12,-4.68
9.022e-02,-3.8,-3.48
9.025e-02,-4.2,-4.84
9.028e-02,-4.28,-3.8
9.031e-02,-4.12,-4.52
9.034e-02,-4.12,-3.64
9.038e-02,-4.28,-4.52
9.041e-02,-3.8,-3.64
9.044e-02,-4.28,-4.44
9.047e-02,-4.2,-3.72
9.050e-02,-4.28,-4.68
9.054e-02,-4.44,-3.72

