Model,DPO2002B
Firmware Version,1.52

Point Format,Y,
Horizontal Units,S,
Horizontal Scale,0.01,
Sample Interval,1.92012e-05,
Filter Frequency,290000,
Record Length,5207,
Gating,0.0% to 100.0%,
Probe Attenuation,10,
Vertical Units,V,
Vertical Offset,0,
Vertical Scale,2,
Label,,
TIME,CH1,CH1 Peak Detect
-9.400e-03,-4.12,-4.52
-9.381e-03,-3.8,-3.64
-9.362e-03,-3.88,-4.6
-9.342e-03,-4.12,-3.72
-9.323e-03,-4.2,-4.6
-9.304e-03,-3.96,-3.72
-9.285e-03,-4.12,-4.52
-9.266e-03,-3.56,-3.32
-9.246e-03,-3.88,-4.44
-9.227e-03,-3.88,-3.72
-9.208e-03,-3.8,-4.36
-9.189e-03,-3.8,-3.56
-9.170e-03,-4.12,-4.52
-9.150e-03,-4.28,-4.04
-9.131e-03,-4.36,-4.6
-9.112e-03,-4.44,-3.64
-9.093e-03,-4.28,-4.44
-9.074e-03,-3.72,-3.64
-9.054e-03,-4.36,-4.44
-9.035e-03,-4.04,-3.72
-9.016e-03,-3.88,-4.6
-8.997e-03,-4.04,-3.8
-8.978e-03,-4.04,-4.52
-8.958e-03,-4.36,-3.72
-8.939e-03,-4.12,-4.2
-8.920e-03,-4.12,-3.72
-8.901e-03,-3.88,-4.2
-8.882e-03,-4.12,-3.64
-8.862e-03,-4.12,-4.44
-8.843e-03,-3.96,-3.72
-8.824e-03,-4.2,-4.6
-8.805e-03,-4.36,-3.88
-8.786e-03,-3.96,-4.52
-8.766e-03,-4.28,-3.72
-8.747e-03,-3.72,-4.44
-8.728e-03,-4.12,-3.56
-8.709e-03,-4.28,-4.6
-8.690e-03,-4.52,-3.8
-8.670e-03,-4.36,-4.76
-8.651e-03,-4.6,-3.8
-8.632e-03,-4.52,-4.76
-8.613e-03,-4.04,-3.96
-8.594e-03,-4.36,-4.44
-8.574e-03,-4.12,-3.88
-8.555e-03,-4.52,-4.68
-8.536e-03,-3.64,-3.48
-8.517e-03,-4.2,-4.52
-8.498e-03,-4.28,-3.72
-8.478e-03,-4.12,-4.36
-8.459e-03,-3.72,-3.64
-8.440e-03,-4.04,-4.52
-8.421e-03,-3.88,-3.56
-8.402e-03,-4.44,-4.6
-8.382e-03,-4.12,-3.56
-8.363e-03,-4.28,-4.52
-8.344e-03,-4.04,-3.72
-8.325e-03,-4.44,-4.6
-8.306e-03,-4.36,-4.12
-8.286e-03,-4.28,-4.6
-8.267e-03,-3.8,-3.64
-8.248e-03,-3.96,-4.44
-8.229e-03,-4.28,-3.88
-8.210e-03,-4.04,-4.44
-8.190e-03,-4.04,-3.72
-8.171e-03,-3.96,-4.68
-8.152e-03,-4.52,-3.8
-8.133e-03,-4.2,-4.84
-8.114e-03,-4.04,-3.8
-8.094e-03,-4.36,-4.44
-8.075e-03,-3.88,-3.8
-8.056e-03,-4.04,-4.36
-8.037e-03,-4.2,-3.64
-8.018e-03,-4.12,-4.36
-7.998e-03,-4.04,-3.64
-7.979e-03,-4.12,-4.76
-7.960e-03,-4.6,-3.88
-7.941e-03,-4.36,-4.52
-7.922e-03,-3.96,-3.8
-7.902e-03,-4.12,-4.36
-7.883e-03,-4.04,-3.72
-7.864e-03,-3.72,-4.52
-7.845e-03,-3.88,-3.64
-7.825e-03,-4.12,-4.6
-7.806e-03,-4.2,-3.8
-7.787e-03,-4.2,-4.52
-7.768e-03,-4.2,-3.96
-7.749e-03,-4.04,-4.36
-7.729e-03,-4.2,-3.64
-7.710e-03,-4.04,-4.44
-7.691e-03,-4.36,-3.64
-7.672e-03,-4.28,-4.44
-7.653e-03,-4.04,-3.88
-7.633e-03,-4.68,-4.84
-7.614e-03,-4.28,-3.64
-7.595e-03,-4.04,-4.36
-7.576e-03,-3.48,-3.32
-7.557e-03,-4.12,-4.52
-7.537e-03,-3.96,-3.4
-7.518e-03,-4.2,-4.52
-7.499e-03,-3.8,-3.64
-7.480e-03,-4.36,-4.84
-7.461e-03,-4.44,-4.12
-7.441e-03,-4.12,-4.6
-7.422e-03,-4.52,-3.88
-7.403e-03,-4.28,-4.36
-7.384e-03,-3.96,-3.8
-7.365e-03,-3.8,-4.52
-7.345e-03,-4.36,-3.64
-7.326e-03,-3.96,-4.6
-7.307e-03,-4.2,-3.8
-7.288e-03,-4.12,-4.52
-7.269e-03,-3.88,-3.8
-7.249e-03,-3.96,-4.36
-7.230e-03,-3.96,-3.72
-7.211e-03,-3.72,-4.36
-7.192e-03,-3.96,-3.56
-7.173e-03,-3.88,-4.52
-7.153e-03,-3.88,-3.64
-7.134e-03,-4.44,-4.6
-7.115e-03,-4.36,-3.48
-7.096e-03,-4.36,-4.44
-7.077e-03,-3.72,-3.48
-7.057e-03,-4.44,-4.6
-7.038e-03,-4.44,-3.8
-7.019e-03,-4.44,-4.84
-7.000e-03,-4.28,-3.8
-6.981e-03,-3.8,-4.6
-6.961e-03,-4.2,-3.64
-6.942e-03,-3.96,-4.76
-6.923e-03,-3.8,-3.64
-6.904e-03,-4.36,-4.84
-6.885e-03,-4.04,-3.72
-6.865e-03,-3.96,-4.52
-6.846e-03,-4.2,-3.8
-6.827e-03,-4.52,-4.68
-6.808e-03,-4.12,-3.64
-6.789e-03,-4.2,-4.36
-6.769e-03,-3.72,-3.48
-6.750e-03,-3.96,-4.04
-6.731e-03,-3.88,-3.48
-6.712e-03,-4.2,-4.76
-6.693e-03,-3.8,-3.48
-6.673e-03,-4.2,-4.68
-6.654e-03,-4.44,-4.04
-6.635e-03,-4.68,-4.76
-6.616e-03,-4.2,-3.88
-6.597e-03,-3.8,-4.44
-6.577e-03,-4.2,-3.48
-6.558e-03,-4.2,-4.52
-6.539e-03,-3.96,-3.8
-6.520e-03,-4.28,-4.6
-6.501e-03,-4.04,-3.88
-6.481e-03,-4.28,-4.44
-6.462e-03,-4.28,-3.88
-6.443e-03,-3.96,-4.36
-6.424e-03,-3.72,-3.48
-6.405e-03,-4.12,-4.28
-6.385e-03,-3.88,-3.72
-6.366e-03,-3.96,-4.28
-6.347e-03,-4.12,-3.72
-6.328e-03,-4.36,-4.52
-6.309e-03,-3.96,-3.88
-6.289e-03,-4.12,-4.52
-6.270e-03,-3.8,-3.72
-6.251e-03,-3.8,-4.28
-6.232e-03,-3.8,-3.72
-6.213e-03,-3.96,-4.36
-6.193e-03,-3.88,-3.64
-6.174e-03,-4.36,-4.6
-6.155e-03,-4.36,-3.96
-6.136e-03,-4.04,-4.6
-6.117e-03,-4.04,-3.88
-6.097e-03,-3.96,-4.44
-6.078e-03,-4.04,-3.64
-6.059e-03,-4.2,-4.6
-6.040e-03,-4.12,-3.8
-6.021e-03,-4.28,-4.44
-6.001e-03,-4.28,-3.56
-5.982e-03,-4.36,-4.52
-5.963e-03,-4.2,-3.8
-5.944e-03,-3.88,-4.28
-5.925e-03,-4.12,-3.56
-5.905e-03,-4.12,-4.36
-5.886e-03,-4.12,-3.72
-5.867e-03,-4.12,-4.44
-5.848e-03,-3.96,-3.72
-5.829e-03,-4.2,-4.68
-5.809e-03,-4.44,-3.8
-5.790e-03,-3.72,-4.12
-5.771e-03,-3.8,-3.56
-5.752e-03,-3.96,-4.36
-5.733e-03,-3.72,-3.64
-5.713e-03,-4.04,-4.44
-5.694e-03,-3.88,-3.8
-5.675e-03,-4.28,-4.52
-5.656e-03,-3.96,-3.64
-5.637e-03,-3.96,-4.44
-5.617e-03,-3.96,-3.72
-5.598e-03,-4.2,-4.52
-5.579e-03,-4.2,-3.72
-5.560e-03,-4.04,-4.68
-5.541e-03,-4.6,-3.72
-5.521e-03,-4.12,-4.6
-5.502e-03,-4.2,-3.72
-5.483e-03,-4.68,-4.84
-5.464e-03,-3.88,-3.48
-5.445e-03,-4.28,-4.44
-5.425e-03,-3.96,-3.8
-5.406e-03,-4.04,-4.52
-5.387e-03,-3.96,-3.64
-5.368e-03,-4.04,-4.68
-5.349e-03,-4.36,-3.8
-5.329e-03,-3.88,-4.36
-5.310e-03,-4.12,-3.8
-5.291e-03,-3.88,-4.36
-5.272e-03,-3.8,-3.64
-5.253e-03,-4.2,-4.92
-5.233e-03,-3.96,-3.8
-5.214e-03,-4.2,-4.84
-5.195e-03,-4.28,-3.96
-5.176e-03,-4.12,-4.92
-5.157e-03,-4.6,-3.8
-5.137e-03,-3.96,-4.76
-5.118e-03,-4.68,-3.88
-5.099e-03,-3.8,-4.2
-5.080e-03,-3.88,-3.64
-5.061e-03,-3.96,-4.52
-5.041e-03,-4.04,-3.56
-5.022e-03,-4.12,-4.44
-5.003e-03,-4.2,-3.96
-4.984e-03,-4.28,-4.52
-4.965e-03,-3.64,-3.48
-4.945e-03,-4.12,-4.44
-4.926e-03,-4.2,-3.88
-4.907e-03,-4.2,-4.52
-4.888e-03,-4.2,-3.72
-4.869e-03,-4.2,-4.52
-4.849e-03,-4.2,-3.8
-4.830e-03,-3.88,-4.52
-4.811e-03,-4.44,-3.64
-4.792e-03,-3.64,-4.36
-4.773e-03,-3.72,-3.48
-4.753e-03,-4.12,-4.36
-4.734e-03,-3.88,-3.64
-4.715e-03,-4.6,-4.68
-4.696e-03,-3.8,-3.64
-4.676e-03,-4.2,-4.68
-4.657e-03,-4.44,-4.04
-4.638e-03,-4.12,-4.6
-4.619e-03,-4.44,-3.64
-4.600e-03,-3.88,-4.52
-4.580e-03,-4.12,-3.56
-4.561e-03,-4.28,-4.52
-4.542e-03,-4.44,-3.8
-4.523e-03,-4.2,-4.44
-4.504e-03,-3.88,-3.64
-4.484e-03,-4.12,-4.44
-4.465e-03,-4.04,-3.64
-4.446e-03,-4.44,-4.52
-4.427e-03,-3.96,-3.64
-4.408e-03,-3.96,-4.52
-4.388e-03,-3.88,-3.64
-4.369e-03,-4.04,-4.68
-4.350e-03,-4.12,-3.8
-4.331e-03,-3.8,-4.6
-4.312e-03,-3.96,-3.64
-4.292e-03,-4.2,-4.36
-4.273e-03,-4.2,-3.8
-4.254e-03,-3.96,-4.76
-4.235e-03,-4.12,-3.72
-4.216e-03,-4.28,-4.44
-4.196e-03,-4.36,-3.64
-4.177e-03,-4.2,-4.68
-4.158e-03,-4.2,-4.04
-4.139e-03,-3.96,-4.36
-4.120e-03,-3.96,-3.72
-4.100e-03,-4.04,-4.36
-4.081e-03,-3.88,-3.72
-4.062e-03,-3.88,-4.36
-4.043e-03,-4.12,-3.72
-4.024e-03,-4.44,-4.52
-4.004e-03,-4.2,-3.96
-3.985e-03,-4.28,-4.52
-3.966e-03,-4.2,-3.96
-3.947e-03,-4.52,-4.68
-3.928e-03,-4.04,-3.72
-3.908e-03,-3.96,-4.36
-3.889e-03,-4.12,-3.72
-3.870e-03,-4.36,-4.44
-3.851e-03,-3.96,-3.8
-3.832e-03,-4.52,-4.76
-3.812e-03,-3.96,-3.88
-3.793e-03,-3.88,-4.36
-3.774e-03,-4.04,-3.4
-3.755e-03,-3.64,-4.52
-3.736e-03,-3.96,-3.32
-3.716e-03,-4.36,-4.68
-3.697e-03,-4.04,-3.96
-3.678e-03,-4.44,-4.6
-3.659e-03,-4.04,-3.56
-3.640e-03,-4.36,-4.52
-3.620e-03,-4.2,-3.64
-3.601e-03,-3.72,-4.36
-3.582e-03,-3.88,-3.56
-3.563e-03,-4.2,-4.52
-3.544e-03,-4.12,-3.88
-3.524e-03,-4.04,-4.68
-3.505e-03,-4.28,-3.56
-3.486e-03,-4.12,-4.44
-3.467e-03,-4.28,-3.64
-3.448e-03,-4.2,-4.36
-3.428e-03,-4.2,-3.8
-3.409e-03,-4.12,-4.68
-3.390e-03,-4.12,-3.72
-3.371e-03,-3.96,-4.52
-3.352e-03,-3.96,-3.8
-3.332e-03,-4.2,-4.52
-3.313e-03,-4.2,-3.56
-3.294e-03,-4.12,-4.28
-3.275e-03,-3.96,-3.64
-3.256e-03,-4.44,-4.68
-3.236e-03,-4.28,-3.64
-3.217e-03,-4.2,-4.52
-3.198e-03,-4.12,-3.88
-3.179e-03,-4.28,-4.52
-3.160e-03,-4.28,-3.56
-3.140e-03,-4.04,-4.28
-3.121e-03,-4.04,-3.88
-3.102e-03,-4.04,-4.52
-3.083e-03,-4.28,-3.56
-3.064e-03,-4.04,-4.28
-3.044e-03,-4.04,-3.72
-3.025e-03,-4.12,-4.52
-3.006e-03,-4.12,-3.88
-2.987e-03,-4.52,-4.68
-2.968e-03,-4.36,-3.88
-2.948e-03,-4.28,-4.36
-2.929e-03,-3.8,-3.64
-2.910e-03,-3.96,-4.68
-2.891e-03,-4.36,-3.64
-2.872e-03,-4.36,-4.44
-2.852e-03,-3.72,-3.56
-2.833e-03,-4.2,-4.36
-2.814e-03,-4.2,-3.88
-2.795e-03,-3.72,-4.28
-2.776e-03,-4.2,-3.48
-2.756e-03,-4.2,-4.52
-2.737e-03,-4.12,-3.8
-2.718e-03,-4.28,-4.68
-2.699e-03,-3.8,-3.72
-2.680e-03,-4.2,-4.36
-2.660e-03,-3.64,-3.48
-2.641e-03,-3.96,-4.36
-2.622e-03,-4.2,-3.56
-2.603e-03,-3.96,-4.36
-2.584e-03,-4.2,-3.8
-2.564e-03,-4.36,-4.52
-2.545e-03,-4.28,-3.72
-2.526e-03,-4.12,-4.76
-2.507e-03,-4.04,-3.88
-2.488e-03,-4.04,-4.6
-2.468e-03,-4.2,-3.72
-2.449e-03,-4.04,-4.52
-2.430e-03,-3.72,-3.56
-2.411e-03,-4.2,-4.76
-2.392e-03,-4.36,-3.8
-2.372e-03,-4.2,-4.52
-2.353e-03,-4.36,-3.64
-2.334e-03,-3.96,-4.76
-2.315e-03,-3.8,-3.72
-2.296e-03,-3.96,-4.28
-2.276e-03,-3.88,-3.72
-2.257e-03,-4.28,-4.52
-2.238e-03,-4.04,-3.4
-2.219e-03,-3.88,-4.36
-2.200e-03,-3.96,-3.64
-2.180e-03,-4.44,-4.52
-2.161e-03,-3.96,-3.8
-2.142e-03,-3.96,-4.2
-2.123e-03,-3.72,-3.48
-2.104e-03,-4.12,-4.52
-2.084e-03,-4.28,-3.72
-2.065e-03,-4.28,-4.44
-2.046e-03,-4.12,-3.4
-2.027e-03,-3.88,-4.6
-2.008e-03,-4.12,-3.48
-1.988e-03,-3.96,-4.36
-1.969e-03,-4.04,-3.88
-1.950e-03,-4.04,-4.44
-1.931e-03,-3.32,-3.24
-1.912e-03,-4.12,-4.92
-1.892e-03,-4.6,-3.88
-1.873e-03,-4.44,-4.52
-1.854e-03,-4.12,-3.56
-1.835e-03,-4.12,-4.36
-1.816e-03,-3.72,-3.56
-1.796e-03,-3.96,-4.44
-1.777e-03,-4.28,-3.72
-1.758e-03,-3.88,-4.52
-1.739e-03,-4.2,-3.72
-1.720e-03,-4.04,-4.44
-1.700e-03,-4.04,-3.88
-1.681e-03,-4.2,-4.36
-1.662e-03,-4.04,-3.96
-1.643e-03,-3.88,-4.6
-1.624e-03,-4.2,-3.72
-1.604e-03,-4.12,-4.44
-1.585e-03,-4.2,-4.04
-1.566e-03,-4.04,-4.52
-1.547e-03,-4.04,-3.8
-1.527e-03,-4.28,-4.44
-1.508e-03,-4.28,-3.72
-1.489e-03,-4.12,-4.2
-1.470e-03,-3.72,-3.56
-1.451e-03,-4.04,-4.36
-1.431e-03,-3.96,-3.72
-1.412e-03,-4.52,-4.6
-1.393e-03,-4.04,-3.64
-1.374e-03,-4.04,-4.52
-1.355e-03,-4.44,-3.88
-1.335e-03,-4.36,-4.52
-1.316e-03,-3.72,-3.64
-1.297e-03,-4.44,-4.6
-1.278e-03,-4.04,-3.72
-1.259e-03,-4.12,-4.84
-1.239e-03,-4.04,-3.64
-1.220e-03,-4.52,-4.84
-1.201e-03,-4.36,-3.88
-1.182e-03,-4.28,-4.68
-1.163e-03,-3.8,-3.56
-1.143e-03,-4.28,-4.36
-1.124e-03,-4.12,-3.72
-1.105e-03,-4.2,-4.76
-1.086e-03,-4.68,-3.8
-1.067e-03,-3.96,-4.68
-1.047e-03,-4.2,-3.8
-1.028e-03,-4.12,-4.68
-1.009e-03,-4.04,-3.72
-9.899e-04,-3.88,-4.12
-9.707e-04,-3.88,-3.4
-9.515e-04,-4.04,-4.2
-9.323e-04,-3.64,-3.48
-9.131e-04,-4.12,-4.6
-8.939e-04,-4.12,-3.72
-8.747e-04,-4.44,-4.52
-8.555e-04,-4.28,-3.8
-8.363e-04,-4.52,-4.6
-8.171e-04,-3.8,-3.56
-7.978e-04,-4.04,-4.44
-7.786e-04,-4.2,-3.72
-7.594e-04,-3.96,-4.68
-7.402e-04,-4.2,-3.8
-7.210e-04,-4.36,-4.68
-7.018e-04,-4.12,-3.72
-6.826e-04,-4.2,-4.44
-6.634e-04,-4.28,-3.72
-6.442e-04,-3.88,-4.28
-6.250e-04,-3.8,-3.72
-6.058e-04,-3.72,-4.36
-5.866e-04,-4.04,-3.56
-5.674e-04,-3.88,-4.6
-5.482e-04,-4.52,-3.8
-5.290e-04,-4.04,-4.36
-5.098e-04,-4.04,-3.72
-4.906e-04,-4.04,-4.44
-4.714e-04,-4.2,-3.64
-4.522e-04,-4.36,-4.6
-4.330e-04,-4.04,-3.72
-4.138e-04,-4.04,-4.52
-3.946e-04,-4.28,-3.8
-3.754e-04,-4.12,-4.52
-3.562e-04,-4.04,-3.72
-3.370e-04,-4.12,-4.6
-3.178e-04,-3.88,-3.56
-2.986e-04,-4.12,-4.52
-2.794e-04,-4.2,-3.88
-2.602e-04,-4.36,-4.52
-2.410e-04,-4.28,-3.72
-2.218e-04,-4.52,-4.68
-2.026e-04,-4.12,-3.72
-1.834e-04,-4.2,-4.68
-1.642e-04,-3.8,-3.72
-1.450e-04,-3.8,-4.28
-1.258e-04,-4.2,-3.64
-1.066e-04,-3.96,-4.68
-8.740e-05,-4.6,-3.56
-6.820e-05,-4.2,-4.52
-4.900e-05,-4.36,-3.72
-2.980e-05,-4.28,-8.2
-1.060e-05,-3.64,-3.48
8.602e-06,-8.2,-8.2
2.780e-05,12.12,12.12
4.700e-05,4.76,3.96
6.621e-05,4.36,5.72
8.541e-05,4.2,3.8
1.046e-04,4.36,4.52
1.238e-04,4.04,3.96
1.430e-04,4.28,4.52
1.622e-04,4.12,3.96
1.814e-04,4.52,4.6
2.006e-04,4.04,3.88
2.198e-04,4.28,4.6
2.390e-04,4.28,3.56
2.582e-04,4.04,4.44
2.774e-04,3.56,3.24
2.966e-04,3.96,4.2
3.158e-04,3.8,3.32
3.350e-04,3.48,4.04
3.542e-04,3.64,3.32
3.734e-04,3.4,4.04
3.926e-04,3.48,3.24
4.118e-04,3.48,3.88
4.310e-04,3.32,2.68
4.502e-04,3.48,3.56
4.694e-04,3,2.6
4.886e-04,3.08,3.48
5.078e-04,3.48,2.68
5.270e-04,2.92,3.56
5.462e-04,3.08,2.52
5.654e-04,2.68,3.24
5.846e-04,2.76,1.96
6.038e-04,2.28,3
6.230e-04,2.2,2.04
6.422e-04,2.2,2.68
6.614e-04,2.2,1.96
6.806e-04,2.12,2.68
6.998e-04,2.28,1.72
7.190e-04,2.04,2.44
7.382e-04,2.04,1.4
7.575e-04,1.56,2.28
7.767e-04,1.8,1.24
7.959e-04,1.64,1.96
8.151e-04,1.72,1.24
8.343e-04,1.48,1.88
8.535e-04,1.64,1.16
8.727e-04,1.56,1.72
8.919e-04,1.32,1
9.111e-04,1.4,1.8
9.303e-04,1.16,0.84
9.495e-04,1.32,1.48
9.687e-04,1,0.68
9.879e-04,1.16,1.4
1.007e-03,1.32,0.84
1.026e-03,1.08,1.48
1.045e-03,1.48,0.52
1.065e-03,0.68,1.64
1.084e-03,0.28,0.2
1.103e-03,0.76,0.84
1.122e-03,0.68,0.28
1.141e-03,0.44,0.92
1.161e-03,0.68,0.36
1.180e-03,0.76,1
1.199e-03,0.6,0.2
1.218e-03,0.6,0.84
1.237e-03,0.52,0.04
1.257e-03,0.44,0.6
1.276e-03,0.6,-0.12
1.295e-03,0.36,0.68
1.314e-03,0.2,-0.2
1.333e-03,0.36,0.52
1.353e-03,0.12,-0.2
1.372e-03,-0.04,0.52
1.391e-03,-0.04,-0.44
1.410e-03,-0.12,0.52
1.429e-03,-0.36,-0.52
1.449e-03,-0.04,0.44
1.468e-03,0.04,-0.36
1.487e-03,0.36,0.44
1.506e-03,-0.2,-0.36
1.525e-03,-0.12,0.12
1.545e-03,0.12,-0.76
1.564e-03,-0.28,0.2
1.583e-03,-0.52,-0.76
1.602e-03,-0.44,0.04
1.622e-03,-0.84,-1
1.641e-03,-0.76,0.04
1.660e-03,-0.28,-0.76
1.679e-03,-0.12,-0.04
1.698e-03,-0.44,-1
1.718e-03,-0.84,-0.28
1.737e-03,-0.44,-1
1.756e-03,-0.76,-0.2
1.775e-03,-0.92,-1.08
1.794e-03,-1,-0.12
1.814e-03,-0.76,-1.16
1.833e-03,-0.92,-0.28
1.852e-03,-0.44,-1.16
1.871e-03,-0.92,-0.2
1.890e-03,-1,-1.4
1.910e-03,-1,-0.44
1.929e-03,-1.24,-1.32
1.948e-03,-1.08,-0.52
1.967e-03,-0.76,-1.48
1.986e-03,-0.76,-0.44
2.006e-03,-1.08,-1.48
2.025e-03,-0.92,-0.6
2.044e-03,-1.08,-1.48
2.063e-03,-1.4,-0.84
2.082e-03,-1.16,-1.72
2.102e-03,-1.4,-1.08
2.121e-03,-1.48,-1.56
2.140e-03,-1.24,-1
2.159e-03,-1.16,-1.72
2.178e-03,-1.32,-0.76
2.198e-03,-1.4,-1.8
2.217e-03,-1.32,-1.16
2.236e-03,-1.48,-2.12
2.255e-03,-1.48,-1.16
2.274e-03,-1.88,-2.2
2.294e-03,-1.8,-1.24
2.313e-03,-1.48,-1.88
2.332e-03,-1.72,-1.16
2.351e-03,-1.72,-2.04
2.370e-03,-1.72,-1.16
2.390e-03,-1.88,-2.2
2.409e-03,-1.56,-1.32
2.428e-03,-2.12,-2.36
2.447e-03,-1.96,-1.64
2.466e-03,-1.8,-2.12
2.486e-03,-2.04,-1.16
2.505e-03,-1.8,-2.12
2.524e-03,-1.72,-1.32
2.543e-03,-1.56,-2.28
2.562e-03,-1.96,-1.48
2.582e-03,-2.36,-2.44
2.601e-03,-1.8,-1.72
2.620e-03,-2.12,-2.44
2.639e-03,-1.88,-1.72
2.658e-03,-1.88,-2.6
2.678e-03,-2.2,-1.48
2.697e-03,-1.96,-2.68
2.716e-03,-1.96,-1.72
2.735e-03,-2.2,-2.92
2.754e-03,-2.76,-1.88
2.774e-03,-2.28,-2.68
2.793e-03,-2.52,-2.2
2.812e-03,-2.12,-2.68
2.831e-03,-2.36,-1.96
2.850e-03,-2.12,-2.52
2.870e-03,-2.36,-1.96
2.889e-03,-2.52,-2.84
2.908e-03,-2.76,-2.12
2.927e-03,-3.16,-3.32
2.946e-03,-2.36,-1.96
2.966e-03,-2.76,-2.92
2.985e-03,-2.76,-2.2
3.004e-03,-2.28,-3
3.023e-03,-2.84,-2.04
3.042e-03,-2.76,-3
3.062e-03,-2.68,-2.44
3.081e-03,-2.6,-3.24
3.100e-03,-2.92,-2.52
3.119e-03,-2.76,-3.16
3.138e-03,-2.92,-2.6
3.158e-03,-2.92,-3.08
3.177e-03,-2.68,-2.2
3.196e-03,-2.92,-3.4
3.215e-03,-3.24,-2.6
3.234e-03,-3,-3.24
3.254e-03,-2.84,-2.68
3.273e-03,-2.84,-3.24
3.292e-03,-3.16,-2.68
3.311e-03,-2.6,-3.24
3.330e-03,-2.6,-2.44
3.350e-03,-2.68,-3.32
3.369e-03,-3.08,-2.6
3.388e-03,-3.4,-3.64
3.407e-03,-3.4,-2.92
3.426e-03,-3.24,-3.64
3.446e-03,-3.16,-2.92
3.465e-03,-3.32,-3.56
3.484e-03,-3.4,-2.84
3.503e-03,-3.16,-3.72
3.522e-03,-2.92,-2.84
3.542e-03,-3.4,-3.96
3.561e-03,-3.32,-2.76
3.580e-03,-3.16,-3.56
3.599e-03,-3.16,-3.08
3.618e-03,-3.24,-3.56
3.638e-03,-3.16,-3
3.657e-03,-3.32,-3.72
3.676e-03,-3.48,-3
3.695e-03,-3.32,-3.88
3.714e-03,-3.64,-3.08
3.734e-03,-3.72,-3.88
3.753e-03,-3.56,-2.92
3.772e-03,-3.48,-3.88
3.791e-03,-3.24,-2.92
3.810e-03,-3.48,-3.56
3.830e-03,-3.4,-2.68
3.849e-03,-3.4,-3.72
3.868e-03,-3.64,-3.24
3.887e-03,-3.48,-3.8
3.906e-03,-3.72,-3.24
3.926e-03,-3.72,-3.88
3.945e-03,-3.8,-3.32
3.964e-03,-3.24,-3.8
3.983e-03,-3.32,-3
4.002e-03,-3.8,-4.04
4.022e-03,-3.48,-3.32
4.041e-03,-3.72,-4.12
4.060e-03,-3.96,-3.56
4.079e-03,-4.12,-4.36
4.098e-03,-3.56,-3.4
4.118e-03,-3.64,-3.96
4.137e-03,-3.48,-3.24
4.156e-03,-3.32,-3.8
4.175e-03,-3.64,-3.16
4.194e-03,-3.8,-4.28
4.214e-03,-4.04,-3.24
4.233e-03,-4.12,-4.28
4.252e-03,-3.96,-3.8
4.271e-03,-4.12,-4.44
4.290e-03,-3.72,-3.48
4.310e-03,-3.56,-4.04
4.329e-03,-3.56,-3.4
4.348e-03,-3.64,-4.2
4.367e-03,-4.04,-3.32
4.386e-03,-3.88,-4.52
4.406e-03,-3.96,-3.48
4.425e-03,-4.04,-4.2
4.444e-03,-3.88,-3.64
4.463e-03,-3.64,-4.2
4.482e-03,-3.72,-3.48
4.502e-03,-3.72,-4.12
4.521e-03,-3.64,-3.48
4.540e-03,-3.4,-4.04
4.559e-03,-3.72,-3.24
4.578e-03,-3.88,-4.44
4.598e-03,-4.12,-3.64
4.617e-03,-4.04,-4.52
4.636e-03,-3.56,-3.4
4.655e-03,-3.8,-3.96
4.675e-03,-3.8,-3.48
4.694e-03,-3.96,-4.2
4.713e-03,-3.96,-3.72
4.732e-03,-4.12,-4.44
4.751e-03,-3.96,-3.64
4.771e-03,-3.96,-4.28
4.790e-03,-4.04,-3.8
4.809e-03,-4.12,-4.44
4.828e-03,-4.2,-3.72
4.847e-03,-3.8,-4.28
4.867e-03,-4.04,-3.64
4.886e-03,-4.28,-4.36
4.905e-03,-4.12,-3.88
4.924e-03,-4.12,-4.44
4.943e-03,-4.12,-3.88
4.963e-03,-3.96,-4.36
4.982e-03,-3.8,-3.72
5.001e-03,-3.96,-4.2
5.020e-03,-3.96,-3.64
5.039e-03,-4.28,-4.44
5.059e-03,-3.96,-3.72
5.078e-03,-4.2,-4.44
5.097e-03,-4.12,-3.88
5.116e-03,-3.8,-4.6
5.135e-03,-4.2,-3.64
5.155e-03,-3.72,-4.44
5.174e-03,-4.28,-3.4
5.193e-03,-3.96,-4.52
5.212e-03,-3.72,-3.56
5.231e-03,-3.96,-4.52
5.251e-03,-3.72,-3.64
5.270e-03,-4.28,-4.6
5.289e-03,-4.52,-3.8
5.308e-03,-3.8,-4.52
5.327e-03,-3.8,-3.56
5.347e-03,-3.96,-4.52
5.366e-03,-4.04,-3.64
5.385e-03,-4.2,-4.36
5.404e-03,-4.04,-3.72
5.423e-03,-4.36,-4.6
5.443e-03,-4.12,-3.88
5.462e-03,-3.8,-4.36
5.481e-03,-4.04,-3.64
5.500e-03,-3.96,-4.12
5.519e-03,-3.72,-3.56
5.539e-03,-4.12,-4.28
5.558e-03,-4.12,-3.72
5.577e-03,-4.2,-4.52
5.596e-03,-4.28,-4.04
5.615e-03,-3.88,-4.28
5.635e-03,-3.96,-3.64
5.654e-03,-3.8,-4.44
5.673e-03,-3.88,-3.72
5.692e-03,-4.04,-4.36
5.711e-03,-4.12,-3.88
5.731e-03,-4.12,-4.44
5.750e-03,-4.28,-3.88
5.769e-03,-4.04,-4.36
5.788e-03,-4.04,-3.56
5.807e-03,-4.04,-4.2
5.827e-03,-3.8,-3.72
5.846e-03,-3.64,-4.44
5.865e-03,-4.04,-3.56
5.884e-03,-3.96,-4.44
5.903e-03,-4.12,-3.88
5.923e-03,-4.2,-4.36
5.942e-03,-3.88,-3.56
5.961e-03,-4.04,-4.52
5.980e-03,-4.04,-3.72
5.999e-03,-3.88,-4.52
6.019e-03,-4.2,-3.8
6.038e-03,-4.44,-4.84
6.057e-03,-4.44,-4.12
6.076e-03,-4.2,-4.76
6.095e-03,-3.88,-3.8
6.115e-03,-3.96,-4.44
6.134e-03,-3.64,-3.48
6.153e-03,-3.8,-4.36
6.172e-03,-4.12,-3.64
6.191e-03,-3.88,-4.36
6.211e-03,-4.28,-3.72
6.230e-03,-4.52,-4.92
6.249e-03,-3.96,-3.72
6.268e-03,-3.88,-4.36
6.287e-03,-4.12,-3.64
6.307e-03,-4.12,-4.6
6.326e-03,-4.52,-3.8
6.345e-03,-4.36,-5
6.364e-03,-4.6,-3.96
6.383e-03,-4.44,-4.68
6.403e-03,-3.88,-3.72
6.422e-03,-4.2,-4.36
6.441e-03,-4.04,-3.8
6.460e-03,-4.12,-4.36
6.479e-03,-4.2,-3.56
6.499e-03,-4.04,-4.36
6.518e-03,-4.12,-3.64
6.537e-03,-3.88,-4.6
6.556e-03,-4.2,-3.56
6.575e-03,-4.44,-4.52
6.595e-03,-4.2,-3.72
6.614e-03,-4.44,-4.6
6.633e-03,-3.8,-3.56
6.652e-03,-4.2,-4.52
6.671e-03,-4.44,-3.64
6.691e-03,-4.2,-4.76
6.710e-03,-4.68,-3.64
6.729e-03,-4.12,-4.68
6.748e-03,-4.36,-3.8
6.767e-03,-3.96,-4.44
6.787e-03,-4.28,-3.72
6.806e-03,-4.36,-4.52
6.825e-03,-4.04,-3.72
6.844e-03,-4.2,-4.52
6.863e-03,-3.96,-3.72
6.883e-03,-4.36,-4.52
6.902e-03,-3.96,-3.72
6.921e-03,-3.72,-4.36
6.940e-03,-3.88,-3.56
6.959e-03,-4.52,-4.6
6.979e-03,-4.12,-3.8
6.998e-03,-3.8,-4.52
7.017e-03,-4.44,-3.72
7.036e-03,-3.88,-4.6
7.055e-03,-4.44,-3.64
7.075e-03,-4.36,-4.44
7.094e-03,-4.2,-3.8
7.113e-03,-4.28,-4.6
7.132e-03,-4.28,-3.64
7.151e-03,-4.44,-4.6
7.171e-03,-3.96,-3.8
7.190e-03,-3.88,-4.52
7.209e-03,-4.2,-3.64
7.228e-03,-4.12,-4.36
7.247e-03,-4.04,-3.64
7.267e-03,-4.04,-4.36
7.286e-03,-3.96,-3.8
7.305e-03,-4.04,-4.76
7.324e-03,-3.88,-3.56
7.343e-03,-4.12,-4.52
7.363e-03,-4.28,-3.88
7.382e-03,-3.8,-4.44
7.401e-03,-4.36,-3.72
7.420e-03,-4.12,-4.28
7.439e-03,-3.8,-3.64
7.459e-03,-3.72,-4.6
7.478e-03,-4.36,-3.4
7.497e-03,-3.64,-4.36
7.516e-03,-3.88,-3.24
7.535e-03,-4.12,-4.36
7.555e-03,-4.2,-3.72
7.574e-03,-4.28,-4.44
7.593e-03,-4.36,-3.8
7.612e-03,-3.96,-4.2
7.631e-03,-3.88,-3.48
7.651e-03,-3.8,-4.6
7.670e-03,-4.2,-3.56
7.689e-03,-4.36,-4.6
7.708e-03,-4.44,-4.04
7.727e-03,-4.28,-4.52
7.747e-03,-4.2,-3.56
7.766e-03,-4.04,-4.36
7.785e-03,-4.12,-3.64
7.804e-03,-3.8,-4.28
7.824e-03,-3.56,-3.32
7.843e-03,-3.8,-4.44
7.862e-03,-3.72,-3.56
7.881e-03,-4.36,-4.44
7.900e-03,-3.88,-3.72
7.920e-03,-4.2,-4.28
7.939e-03,-3.8,-3.48
7.958e-03,-4.04,-4.28
7.977e-03,-3.8,-3.56
7.996e-03,-3.88,-4.2
8.016e-03,-3.88,-3.72
8.035e-03,-4.36,-4.52
8.054e-03,-4.44,-3.88
8.073e-03,-4.28,-4.52
8.092e-03,-4.12,-3.88
8.112e-03,-4.2,-4.36
8.131e-03,-3.88,-3.64
8.150e-03,-4.04,-4.36
8.169e-03,-3.96,-3.8
8.188e-03,-4.36,-4.6
8.208e-03,-4.44,-3.88
8.227e-03,-4.12,-4.68
8.246e-03,-3.8,-3.64
8.265e-03,-4.28,-4.6
8.284e-03,-4.36,-3.88
8.304e-03,-3.96,-4.28
8.323e-03,-4.12,-3.56
8.342e-03,-4.2,-4.68
8.361e-03,-4.44,-3.72
8.380e-03,-4.2,-4.6
8.400e-03,-4.52,-3.96
8.419e-03,-3.8,-4.36
8.438e-03,-3.96,-3.64
8.457e-03,-4.12,-4.36
8.476e-03,-3.96,-3.72
8.496e-03,-4.52,-4.68
8.515e-03,-4.52,-3.8
8.534e-03,-4.04,-4.76
8.553e-03,-4.28,-3.8
8.572e-03,-4.28,-4.68
8.592e-03,-4.36,-3.88
8.611e-03,-4.12,-4.44
8.630e-03,-4.28,-3.48
8.649e-03,-4.44,-4.52
8.668e-03,-4.12,-3.64
8.688e-03,-3.88,-4.52
8.707e-03,-3.96,-3.72
8.726e-03,-4.52,-4.68
8.745e-03,-4.2,-4.04
8.764e-03,-3.88,-4.36
8.784e-03,-4.28,-3.72
8.803e-03,-3.72,-4.2
8.822e-03,-4.04,-3.56
8.841e-03,-3.88,-4.76
8.860e-03,-4.44,-3.72
8.880e-03,-3.88,-4.52
8.899e-03,-4.28,-3.56
8.918e-03,-3.96,-4.44
8.937e-03,-4.04,-3.4
8.956e-03,-3.56,-4.04
8.976e-03,-3.8,-3.4
8.995e-03,-4.04,-4.28
9.014e-03,-4.04,-3.88
9.033e-03,-3.88,-4.52
9.052e-03,-4.12,-3.72
9.072e-03,-4.2,-4.44
9.091e-03,-4.12,-3.48
9.110e-03,-3.88,-4.28
9.129e-03,-3.88,-3.48
9.148e-03,-3.88,-4.52
9.168e-03,-4.44,-3.64
9.187e-03,-4.28,-4.36
9.206e-03,-4.2,-3.88
9.225e-03,-4.44,-4.68
9.244e-03,-3.88,-3.72
9.264e-03,-4.2,-4.52
9.283e-03,-4.36,-3.8
9.302e-03,-4.28,-4.52
9.321e-03,-4.28,-3.8
9.340e-03,-4.12,-4.44
9.360e-03,-4.2,-4.04
9.379e-03,-4.28,-4.68
9.398e-03,-4.12,-3.72
9.417e-03,-4.44,-4.52
9.436e-03,-4.04,-3.48
9.456e-03,-3.88,-4.36
9.475e-03,-4.28,-3.8
9.494e-03,-3.8,-4.44
9.513e-03,-4.2,-3.56
9.532e-03,-4.52,-4.6
9.552e-03,-4.12,-3.64
9.571e-03,-3.88,-4.28
9.590e-03,-3.96,-3.72
9.609e-03,-4.12,-4.28
9.628e-03,-3.88,-3.72
9.648e-03,-4.04,-4.28
9.667e-03,-4.04,-3.72
9.686e-03,-4.36,-4.52
9.705e-03,-4.2,-3.72
9.724e-03,-4.36,-4.52
9.744e-03,-3.96,-3.72
9.763e-03,-3.64,-4.52
9.782e-03,-4.2,-3.56
9.801e-03,-3.72,-4.44
9.820e-03,-4.04,-3.64
9.840e-03,-4.04,-4.68
9.859e-03,-4.44,-3.64
9.878e-03,-4.44,-4.6
9.897e-03,-4.2,-3.96
9.916e-03,-4.36,-4.52
9.936e-03,-4.04,-3.72
9.955e-03,-3.64,-4.36
9.974e-03,-4.12,-3.48
9.993e-03,-4.12,-4.36
1.001e-02,-4.12,-3.72
1.003e-02,-3.96,-4.6
1.005e-02,-4.04,-3.8
1.007e-02,-3.96,-4.52
1.009e-02,-3.8,-3.56
1.011e-02,-3.88,-4.2
1.013e-02,-3.96,-3.56
1.015e-02,-3.96,-4.52
1.017e-02,-4.36,-3.8
1.019e-02,-4.12,-4.6
1.020e-02,-4.2,-3.8
1.022e-02,-4.04,-4.36
1.024e-02,-4.12,-3.72
1.026e-02,-4.12,-4.28
1.028e-02,-3.88,-3.4
1.030e-02,-4.04,-4.28
1.032e-02,-3.88,-3.48
1.034e-02,-4.28,-4.44
1.036e-02,-3.8,-3.56
1.038e-02,-4.2,-4.52
1.040e-02,-4.12,-3.8
1.042e-02,-4.28,-4.36
1.043e-02,-4.04,-3.64
1.045e-02,-4.2,-4.36
1.047e-02,-3.96,-3.72
1.049e-02,-3.96,-4.52
1.051e-02,-4.44,-3.72
1.053e-02,-4.12,-4.52
1.055e-02,-4.2,-3.8
1.057e-02,-4.12,-4.52
1.059e-02,-3.96,-3.64
1.061e-02,-4.28,-4.36
1.063e-02,-4.2,-3.8
1.065e-02,-3.96,-4.36
1.067e-02,-4.04,-3.72
1.068e-02,-4.2,-4.6
1.070e-02,-4.36,-3.8
1.072e-02,-4.28,-4.44
1.074e-02,-3.88,-3.56
1.076e-02,-3.96,-4.28
1.078e-02,-4.12,-3.56
1.080e-02,-4.12,-4.44
1.082e-02,-3.88,-3.64
1.084e-02,-4.12,-4.28
1.086e-02,-4.12,-3.64
1.088e-02,-4.04,-4.6
1.090e-02,-3.56,-3.48
1.091e-02,-3.8,-4.28
1.093e-02,-4.04,-3.48
1.095e-02,-3.96,-4.28
1.097e-02,-3.88,-3.48
1.099e-02,-4.28,-4.6
1.101e-02,-3.8,-3.72
1.103e-02,-4.52,-4.68
1.105e-02,-4.6,-3.8
1.107e-02,-3.88,-4.28
1.109e-02,-3.88,-3.72
1.111e-02,-3.88,-4.2
1.113e-02,-3.8,-3.4
1.115e-02,-3.88,-4.44
1.116e-02,-3.72,-3.48
1.118e-02,-4.28,-4.52
1.120e-02,-4.12,-3.48
1.122e-02,-4.36,-4.44
1.124e-02,-3.56,-3.4
1.126e-02,-3.72,-4.52
1.128e-02,-4.36,-3.56
1.130e-02,-3.96,-4.52
1.132e-02,-3.88,-3.72
1.134e-02,-4.12,-4.36
1.136e-02,-4.2,-3.56
1.138e-02,-3.88,-4.12
1.139e-02,-3.56,-3.4
1.141e-02,-3.8,-4.36
1.143e-02,-4.04,-3.64
1.145e-02,-3.72,-4.44
1.147e-02,-4.28,-3.64
1.149e-02,-3.88,-4.6
1.151e-02,-3.88,-3.72
1.153e-02,-4.28,-4.6
1.155e-02,-4.04,-3.56
1.157e-02,-4.28,-4.44
1.159e-02,-3.88,-3.64
1.161e-02,-3.72,-4.2
1.163e-02,-3.96,-3.56
1.164e-02,-4.12,-4.28
1.166e-02,-3.64,-3.56
1.168e-02,-3.8,-4.36
1.170e-02,-4.04,-3.64
1.172e-02,-3.64,-4.36
1.174e-02,-4.2,-3.24
1.176e-02,-4.28,-4.44
1.178e-02,-4.2,-3.72
1.180e-02,-3.88,-4.36
1.182e-02,-4.2,-3.64
1.184e-02,-4.12,-4.36
1.186e-02,-3.96,-3.8
1.187e-02,-4.12,-4.44
1.189e-02,-3.88,-3.72
1.191e-02,-4.04,-4.36
1.193e-02,-3.8,-3.56
1.195e-02,-4.04,-4.44
1.197e-02,-4.2,-3.56
1.199e-02,-4.2,-4.6
1.201e-02,-4.52,-3.64
1.203e-02,-3.96,-4.44
1.205e-02,-4.36,-3.72
1.207e-02,-4.12,-4.44
1.209e-02,-3.56,-3.48
1.211e-02,-3.72,-4.28
1.212e-02,-3.88,-3.56
1.214e-02,-4.52,-4.68
1.216e-02,-4.36,-3.88
1.218e-02,-3.64,-4.68
1.220e-02,-4.36,-3.56
1.222e-02,-3.88,-4.28
1.224e-02,-3.8,-3.72
1.226e-02,-3.8,-4.12
1.228e-02,-3.88,-3.64
1.230e-02,-3.72,-4.28
1.232e-02,-3.96,-3.64
1.234e-02,-4.04,-4.36
1.235e-02,-3.96,-3.72
1.237e-02,-3.72,-4.36
1.239e-02,-3.96,-3.64
1.241e-02,-4.2,-4.44
1.243e-02,-4.12,-3.56
1.245e-02,-4.04,-4.44
1.247e-02,-4.12,-3.96
1.249e-02,-3.64,-4.44
1.251e-02,-3.88,-3.56
1.253e-02,-4.12,-4.28
1.255e-02,-3.96,-3.72
1.257e-02,-3.88,-4.12
1.259e-02,-3.72,-3.64
1.260e-02,-3.72,-4.28
1.262e-02,-3.96,-3.64
1.264e-02,-3.8,-4.68
1.266e-02,-4.28,-3.64
1.268e-02,-4.2,-4.68
1.270e-02,-4.2,-3.8
1.272e-02,-3.96,-4.52
1.274e-02,-3.8,-3.64
1.276e-02,-3.88,-3.96
1.278e-02,-3.88,-3.48
1.280e-02,-4.2,-4.52
1.282e-02,-3.96,-3.64
1.284e-02,-3.96,-4.52
1.285e-02,-3.96,-3.8
1.287e-02,-4.28,-4.36
1.289e-02,-4.28,-3.8
1.291e-02,-3.72,-4.12
1.293e-02,-3.64,-3.48
1.295e-02,-3.72,-4.04
1.297e-02,-3.8,-3.48
1.299e-02,-4.2,-4.36
1.301e-02,-4.28,-3.64
1.303e-02,-4.44,-4.52
1.305e-02,-4.28,-3.72
1.307e-02,-3.8,-4.2
1.308e-02,-3.96,-3.16
1.310e-02,-4.04,-4.36
1.312e-02,-4.2,-3.56
1.314e-02,-3.96,-4.52
1.316e-02,-4.12,-3.88
1.318e-02,-4.12,-4.52
1.320e-02,-3.88,-3.56
1.322e-02,-3.8,-4.36
1.324e-02,-3.72,-3.4
1.326e-02,-3.8,-4.52
1.328e-02,-3.88,-3.32
1.330e-02,-3.72,-4.52
1.332e-02,-4.44,-3.4
1.333e-02,-4.36,-4.52
1.335e-02,-4.12,-3.64
1.337e-02,-4.2,-4.36
1.339e-02,-3.72,-3.56
1.341e-02,-3.8,-4.28
1.343e-02,-3.48,-3.32
1.345e-02,-4.12,-4.52
1.347e-02,-4.12,-3.64
1.349e-02,-4.52,-4.68
1.351e-02,-3.72,-3.56
1.353e-02,-4.36,-4.6
1.355e-02,-4.36,-3.72
1.356e-02,-3.88,-4.12
1.358e-02,-3.72,-3.56
1.360e-02,-4.2,-4.52
1.362e-02,-4.12,-3.56
1.364e-02,-4.36,-4.6
1.366e-02,-4.44,-3.72
1.368e-02,-4.12,-4.36
1.370e-02,-4.12,-3.56
1.372e-02,-3.96,-4.12
1.374e-02,-3.88,-3.72
1.376e-02,-4.04,-4.44
1.378e-02,-4.2,-3.72
1.380e-02,-3.72,-4.36
1.381e-02,-3.96,-3.56
1.383e-02,-3.8,-4.44
1.385e-02,-4.04,-3.72
1.387e-02,-4.28,-4.52
1.389e-02,-3.8,-3.56
1.391e-02,-4.36,-4.52
1.393e-02,-3.72,-3.4
1.395e-02,-3.88,-4.2
1.397e-02,-3.96,-3.64
1.399e-02,-3.8,-4.52
1.401e-02,-4.12,-3.72
1.403e-02,-4.44,-4.68
1.404e-02,-4.36,-3.72
1.406e-02,-3.88,-4.12
1.408e-02,-3.96,-3.56
1.410e-02,-3.88,-4.44
1.412e-02,-3.88,-3.48
1.414e-02,-4.04,-4.36
1.416e-02,-3.96,-3.4
1.418e-02,-3.96,-4.28
1.420e-02,-4.12,-3.56
1.422e-02,-3.8,-4.2
1.424e-02,-3.88,-3.56
1.426e-02,-4.28,-4.52
1.428e-02,-4.36,-3.64
1.429e-02,-3.8,-4.2
1.431e-02,-3.88,-3.48
1.433e-02,-3.96,-4.44
1.435e-02,-4.12,-3.56
1.437e-02,-3.88,-4.2
1.439e-02,-3.88,-3.64
1.441e-02,-3.88,-4.36
1.443e-02,-4.04,-3.48
1.445e-02,-3.64,-4.52
1.447e-02,-4.36,-3.48
1.449e-02,-4.04,-4.52
1.451e-02,-4.28,-3.64
1.452e-02,-4.04,-4.36
1.454e-02,-4.2,-3.48
1.456e-02,-3.8,-4.12
1.458e-02,-3.88,-3.48
1.460e-02,-3.56,-4.36
1.462e-02,-4.2,-3.4
1.464e-02,-3.88,-4.76
1.466e-02,-4.2,-3.72
1.468e-02,-3.72,-4.36
1.470e-02,-4.2,-3.64
1.472e-02,-3.72,-4.52
1.474e-02,-4.12,-3.64
1.476e-02,-4.04,-4.28
1.477e-02,-3.88,-3.72
1.479e-02,-4.04,-4.68
1.481e-02,-4.28,-3.64
1.483e-02,-4.12,-4.6
1.485e-02,-3.72,-3.64
1.487e-02,-4.12,-4.52
1.489e-02,-3.88,-3.56
1.491e-02,-3.96,-4.28
1.493e-02,-4.04,-3.64
1.495e-02,-4.28,-4.44
1.497e-02,-4.28,-3.72
1.499e-02,-3.8,-4.52
1.500e-02,-4.04,-3.72
1.502e-02,-4.28,-4.52
1.504e-02,-4.2,-4.04
1.506e-02,-3.88,-4.52
1.508e-02,-3.96,-3.72
1.510e-02,-4.04,-4.44
1.512e-02,-4.2,-3.8
1.514e-02,-3.88,-4.36
1.516e-02,-4.04,-3.8
1.518e-02,-4.6,-4.68
1.520e-02,-3.56,-3.4
1.522e-02,-3.8,-4.28
1.524e-02,-3.88,-3.48
1.525e-02,-4.28,-4.44
1.527e-02,-3.96,-3.72
1.529e-02,-4.04,-4.52
1.531e-02,-4.2,-3.64
1.533e-02,-4.04,-4.2
1.535e-02,-3.88,-3.56
1.537e-02,-3.96,-4.12
1.539e-02,-3.64,-3.32
1.541e-02,-3.8,-4.2
1.543e-02,-3.8,-3.56
1.545e-02,-3.96,-4.2
1.547e-02,-3.88,-3.64
1.548e-02,-4.2,-4.52
1.550e-02,-4.44,-3.72
1.552e-02,-3.96,-4.36
1.554e-02,-3.96,-3.72
1.556e-02,-3.96,-4.28
1.558e-02,-3.72,-3.56
1.560e-02,-3.8,-4.36
1.562e-02,-3.8,-3.64
1.564e-02,-4.12,-4.52
1.566e-02,-3.96,-3.8
1.568e-02,-4.44,-4.6
1.570e-02,-3.96,-3.72
1.572e-02,-3.88,-4.44
1.573e-02,-3.72,-3.64
1.575e-02,-4.2,-4.52
1.577e-02,-3.96,-3.72
1.579e-02,-4.2,-4.36
1.581e-02,-3.8,-3.64
1.583e-02,-4.36,-4.44
1.585e-02,-4.2,-3.88
1.587e-02,-4.04,-4.36
1.589e-02,-4.04,-3.64
1.591e-02,-4.04,-4.28
1.593e-02,-4.12,-3.72
1.595e-02,-4.36,-4.52
1.596e-02,-4.28,-3.96
1.598e-02,-4.12,-4.36
1.600e-02,-4.28,-3.88
1.602e-02,-4.12,-4.52
1.604e-02,-4.36,-3.8
1.606e-02,-3.8,-4.44
1.608e-02,-3.8,-3.24
1.610e-02,-4.12,-4.2
1.612e-02,-3.96,-3.56
1.614e-02,-4.12,-4.52
1.616e-02,-4.28,-3.72
1.618e-02,-4.12,-4.52
1.620e-02,-4.36,-3.8
1.621e-02,-3.64,-4.52
1.623e-02,-4.44,-3.56
1.625e-02,-3.8,-4.12
1.627e-02,-3.64,-3.4
1.629e-02,-4.12,-4.52
1.631e-02,-4.36,-3.8
1.633e-02,-4.2,-4.76
1.635e-02,-4.28,-3.72
1.637e-02,-4.2,-4.44
1.639e-02,-3.32,-3.24
1.641e-02,-3.88,-4.2
1.643e-02,-3.88,-3.48
1.644e-02,-3.88,-4.44
1.646e-02,-4.2,-3.8
1.648e-02,-4.04,-4.36
1.650e-02,-4.04,-3.72
1.652e-02,-3.88,-4.52
1.654e-02,-4.12,-3.72
1.656e-02,-4.04,-4.28
1.658e-02,-4.04,-3.64
1.660e-02,-3.8,-4.44
1.662e-02,-3.8,-3.56
1.664e-02,-4.2,-4.44
1.666e-02,-4.12,-3.8
1.668e-02,-4.04,-4.52
1.669e-02,-4.04,-3.48
1.671e-02,-3.72,-4.04
1.673e-02,-3.8,-3.64
1.675e-02,-4.04,-4.28
1.677e-02,-3.96,-3.48
1.679e-02,-3.96,-4.6
1.681e-02,-4.28,-3.8
1.683e-02,-3.96,-4.52
1.685e-02,-4.2,-3.64
1.687e-02,-4.12,-4.52
1.689e-02,-3.8,-3.48
1.691e-02,-3.8,-4.2
1.692e-02,-3.88,-3.4
1.694e-02,-3.96,-4.6
1.696e-02,-4.28,-3.56
1.698e-02,-4.36,-4.52
1.700e-02,-4.44,-3.56
1.702e-02,-4.12,-4.44
1.704e-02,-4.04,-3.56
1.706e-02,-3.72,-4.36
1.708e-02,-3.64,-3.48
1.710e-02,-3.96,-4.2
1.712e-02,-3.88,-3.56
1.714e-02,-4.2,-4.52
1.716e-02,-4.36,-3.8
1.717e-02,-4.12,-4.28
1.719e-02,-3.8,-3.48
1.721e-02,-3.96,-4.52
1.723e-02,-3.96,-3.56
1.725e-02,-3.72,-4.52
1.727e-02,-3.88,-3.64
1.729e-02,-4.04,-4.76
1.731e-02,-4.6,-3.88
1.733e-02,-4.2,-4.52
1.735e-02,-3.88,-3.72
1.737e-02,-4.2,-4.28
1.739e-02,-4.12,-3.64
1.740e-02,-3.64,-4.44
1.742e-02,-3.72,-3.56
1.744e-02,-4.2,-4.52
1.746e-02,-4.28,-3.8
1.748e-02,-3.96,-4.6
1.750e-02,-3.96,-3.64
1.752e-02,-4.12,-4.76
1.754e-02,-4.12,-3.56
1.756e-02,-4.04,-4.6
1.758e-02,-4.44,-3.48
1.760e-02,-3.88,-4.52
1.762e-02,-4.2,-3.64
1.764e-02,-3.72,-4.36
1.765e-02,-4.12,-3.48
1.767e-02,-4.36,-4.44
1.769e-02,-3.72,-3.4
1.771e-02,-3.8,-4.36
1.773e-02,-4.2,-3.64
1.775e-02,-4.04,-4.6
1.777e-02,-4.44,-3.64
1.779e-02,-4.04,-4.36
1.781e-02,-3.96,-3.56
1.783e-02,-3.72,-4.28
1.785e-02,-4.12,-3.64
1.787e-02,-4.12,-4.28
1.788e-02,-3.56,-3.48
1.790e-02,-3.64,-4.68
1.792e-02,-3.56,-3.4
1.794e-02,-4.12,-4.6
1.796e-02,-4.36,-3.8
1.798e-02,-4.36,-4.68
1.800e-02,-3.8,-3.72
1.802e-02,-3.88,-4.44
1.804e-02,-4.12,-3.72
1.806e-02,-4.2,-4.28
1.808e-02,-3.8,-3.72
1.810e-02,-4.04,-4.76
1.812e-02,-4.6,-3.8
1.813e-02,-4.28,-4.52
1.815e-02,-3.88,-3.72
1.817e-02,-4.2,-4.36
1.819e-02,-3.96,-3.8
1.821e-02,-3.72,-4.36
1.823e-02,-3.96,-3.64
1.825e-02,-3.48,-4.36
1.827e-02,-3.96,-3.4
1.829e-02,-3.88,-4.44
1.831e-02,-3.8,-3.72
1.833e-02,-4.44,-4.52
1.835e-02,-4.04,-3.64
1.836e-02,-3.96,-4.28
1.838e-02,-3.72,-3.48
1.840e-02,-4.12,-4.44
1.842e-02,-3.72,-3.64
1.844e-02,-4.12,-4.76
1.846e-02,-4.36,-3.8
1.848e-02,-4.04,-4.44
1.850e-02,-3.72,-3.56
1.852e-02,-3.88,-4.28
1.854e-02,-3.8,-3.64
1.856e-02,-4.04,-4.2
1.858e-02,-3.96,-3.56
1.860e-02,-4.12,-4.36
1.861e-02,-3.88,-3.8
1.863e-02,-4.04,-4.44
1.865e-02,-4.12,-3.88
1.867e-02,-4.04,-4.36
1.869e-02,-3.8,-3.56
1.871e-02,-4.2,-4.36
1.873e-02,-4.28,-3.72
1.875e-02,-4.52,-4.76
1.877e-02,-4.44,-3.88
1.879e-02,-4.44,-4.52
1.881e-02,-3.96,-3.8
1.883e-02,-4.12,-4.36
1.885e-02,-4.12,-3.56
1.886e-02,-3.56,-4.6
1.888e-02,-4.28,-3.4
1.890e-02,-3.96,-4.28
1.892e-02,-3.8,-3.72
1.894e-02,-4.04,-4.52
1.896e-02,-4.28,-3.88
1.898e-02,-4.6,-4.92
1.900e-02,-3.96,-3.72
1.902e-02,-4.04,-4.36
1.904e-02,-4.04,-3.64
1.906e-02,-3.48,-4.28
1.908e-02,-4.12,-3.4
1.909e-02,-4.44,-4.52
1.911e-02,-4.04,-3.96
1.913e-02,-4.12,-4.44
1.915e-02,-3.96,-3.88
1.917e-02,-4.36,-4.44
1.919e-02,-3.72,-3.56
1.921e-02,-3.88,-4.28
1.923e-02,-3.72,-3.4
1.925e-02,-4.44,-4.6
1.927e-02,-3.72,-3.56
1.929e-02,-4.2,-4.52
1.931e-02,-3.8,-3.72
1.933e-02,-4.12,-4.52
1.934e-02,-4.12,-3.72
1.936e-02,-4.12,-4.44
1.938e-02,-4.2,-3.4
1.940e-02,-3.96,-4.52
1.942e-02,-4.2,-3.4
1.944e-02,-4.12,-4.52
1.946e-02,-4.36,-3.88
1.948e-02,-3.96,-4.52
1.950e-02,-3.96,-3.48
1.952e-02,-3.96,-4.36
1.954e-02,-4.2,-3.56
1.956e-02,-3.88,-4.2
1.957e-02,-4.12,-3.72
1.959e-02,-4.04,-4.36
1.961e-02,-4.04,-3.8
1.963e-02,-4.2,-4.28
1.965e-02,-3.72,-3.56
1.967e-02,-3.88,-4.44
1.969e-02,-4.28,-3.64
1.971e-02,-4.04,-4.36
1.973e-02,-3.8,-3.64
1.975e-02,-4.12,-4.52
1.977e-02,-4.28,-3.96
1.979e-02,-4.2,-4.6
1.981e-02,-4.28,-4.04
1.982e-02,-4.2,-4.44
1.984e-02,-3.8,-3.72
1.986e-02,-3.88,-4.2
1.988e-02,-3.56,-3.24
1.990e-02,-3.8,-4.44
1.992e-02,-4.12,-3.48
1.994e-02,-4.44,-4.6
1.996e-02,-3.88,-3.4
1.998e-02,-4.28,-4.36
2.000e-02,-3.56,-3.4
2.002e-02,-4.04,-4.52
2.004e-02,-3.64,-3.48
2.005e-02,-4.36,-4.76
2.007e-02,-4.36,-3.72
2.009e-02,-4.44,-4.52
2.011e-02,-3.96,-3.64
2.013e-02,-4.12,-4.6
2.015e-02,-4.44,-3.96
2.017e-02,-4.12,-4.36
2.019e-02,-3.96,-3.8
2.021e-02,-3.64,-4.6
2.023e-02,-4.36,-3.48
2.025e-02,-4.28,-4.68
2.027e-02,-4.36,-3.88
2.029e-02,-4.04,-4.44
2.030e-02,-3.96,-3.88
2.032e-02,-4.28,-4.76
2.034e-02,-3.96,-3.8
2.036e-02,-4.04,-4.36
2.038e-02,-4.12,-3.88
2.040e-02,-3.88,-4.44
2.042e-02,-3.96,-3.72
2.044e-02,-4.36,-4.52
2.046e-02,-4.2,-3.96
2.048e-02,-4.2,-4.52
2.050e-02,-4.12,-3.48
2.052e-02,-3.56,-4.44
2.053e-02,-3.8,-3.4
2.055e-02,-3.96,-4.52
2.057e-02,-4.28,-3.64
2.059e-02,-3.88,-4.36
2.061e-02,-4.04,-3.72
2.063e-02,-4.04,-4.28
2.065e-02,-4.12,-3.56
2.067e-02,-3.96,-4.52
2.069e-02,-3.56,-3.48
2.071e-02,-3.8,-4.36
2.073e-02,-4.04,-3.64
2.075e-02,-3.8,-4.28
2.077e-02,-4.12,-3.72
2.078e-02,-4.36,-4.52
2.080e-02,-4.2,-3.8
2.082e-02,-4.6,-7.56
2.084e-02,12.12,12.12
2.086e-02,-8.2,-8.2
2.088e-02,-4.52,12.12
2.090e-02,-3.56,-4.12
2.092e-02,-3.72,-3.32
2.094e-02,-3.96,-4.52
2.096e-02,-3.64,-3.48
2.098e-02,-4.04,-4.36
2.100e-02,-4.28,-3.64
2.101e-02,-3.56,-4.12
2.103e-02,-3.96,-3.4
2.105e-02,-3.64,-4.36
2.107e-02,-4.04,-3.4
2.109e-02,-3.88,-4.36
2.111e-02,-4.2,-3.56
2.113e-02,-3.88,-4.44
2.115e-02,-3.88,-3.64
2.117e-02,-3.96,-4.2
2.119e-02,-3.96,-3.72
2.121e-02,-4.12,-4.28
2.123e-02,-3.88,-3.64
2.125e-02,-4.36,-4.52
2.126e-02,-4.2,-3.96
2.128e-02,-4.04,-4.52
2.130e-02,-4.28,-3.88
2.132e-02,-3.88,-4.6
2.134e-02,-4.2,-3.64
2.136e-02,-3.4,-4.6
2.138e-02,-4.12,-3.32
2.140e-02,-3.88,-4.52
2.142e-02,-3.88,-3.64
2.144e-02,-3.8,-4.6
2.146e-02,-4.36,-3.64
2.148e-02,-4.04,-4.28
2.149e-02,-3.64,-3.56
2.151e-02,-3.56,-4.04
2.153e-02,-3.72,-3.48
2.155e-02,-3.96,-4.2
2.157e-02,-3.96,-3.32
2.159e-02,-3.88,-4.44
2.161e-02,-4.28,-3.72
2.163e-02,-4.36,-4.6
2.165e-02,-4.12,-3.88
2.167e-02,-3.72,-4.36
2.169e-02,-3.8,-3.64
2.171e-02,-3.96,-4.52
2.173e-02,-4.2,-3.48
2.174e-02,-4.28,-4.52
2.176e-02,-4.12,-3.96
2.178e-02,-4.2,-4.52
2.180e-02,-3.72,-3.48
2.182e-02,-3.96,-4.44
2.184e-02,-3.72,-3.48
2.186e-02,-3.88,-4.36
2.188e-02,-3.72,-3.64
2.190e-02,-3.88,-4.52
2.192e-02,-4.28,-3.48
2.194e-02,-4.2,-4.36
2.196e-02,-4.12,-3.64
2.197e-02,-4.12,-4.2
2.199e-02,-3.8,-3.4
2.201e-02,-4.04,-4.44
2.203e-02,-3.88,-3.56
2.205e-02,-4.44,-4.52
2.207e-02,-3.88,-3.64
2.209e-02,-4.2,-4.68
2.211e-02,-3.88,-3.72
2.213e-02,-4.28,-4.68
2.215e-02,-4.04,-3.56
2.217e-02,-3.88,-4.36
2.219e-02,-4.04,-3.64
2.221e-02,-3.88,-4.12
2.222e-02,-3.8,-3.48
2.224e-02,-4.28,-4.44
2.226e-02,-4.04,-3.64
2.228e-02,-4.2,-4.52
2.230e-02,-3.8,-3.64
2.232e-02,-4.04,-4.2
2.234e-02,-3.64,-3.32
2.236e-02,-3.96,-4.28
2.238e-02,-4.12,-3.64
2.240e-02,-4.12,-4.68
2.242e-02,-3.8,-3.56
2.244e-02,-4.12,-4.6
2.245e-02,-3.72,-3.64
2.247e-02,-4.52,-4.6
2.249e-02,-4.04,-3.56
2.251e-02,-3.64,-4.12
2.253e-02,-3.88,-3.56
2.255e-02,-4.12,-4.52
2.257e-02,-3.88,-3.72
2.259e-02,-4.12,-4.6
2.261e-02,-4.36,-3.72
2.263e-02,-3.72,-4.12
2.265e-02,-3.96,-3.48
2.267e-02,-3.4,-4.52
2.269e-02,-4.12,-3.32
2.270e-02,-3.8,-4.36
2.272e-02,-4.28,-3.64
2.274e-02,-4.36,-4.52
2.276e-02,-4.28,-3.56
2.278e-02,-3.56,-4.44
2.280e-02,-3.8,-3.4
2.282e-02,-3.56,-4.28
2.284e-02,-3.96,-3.48
2.286e-02,-3.96,-4.68
2.288e-02,-3.88,-3.8
2.290e-02,-3.8,-4.52
2.292e-02,-4.2,-3.4
2.293e-02,-4.2,-4.6
2.295e-02,-4.12,-3.96
2.297e-02,-4.2,-4.52
2.299e-02,-4.36,-3.64
2.301e-02,-4.04,-4.36
2.303e-02,-3.72,-3.64
2.305e-02,-3.8,-4.68
2.307e-02,-4.52,-3.64
2.309e-02,-4.44,-4.68
2.311e-02,-4.52,-3.72
2.313e-02,-4.28,-4.52
2.315e-02,-4.2,-3.64
2.317e-02,-3.48,-4.36
2.318e-02,-3.56,-3.32
2.320e-02,-3.8,-4.44
2.322e-02,-3.96,-3.4
2.324e-02,-4.04,-4.36
2.326e-02,-4.04,-3.88
2.328e-02,-4.12,-4.28
2.330e-02,-4.12,-3.56
2.332e-02,-3.72,-4.2
2.334e-02,-3.8,-3.56
2.336e-02,-4.12,-4.52
2.338e-02,-4.36,-3.56
2.340e-02,-3.88,-4.52
2.341e-02,-4.36,-3.64
2.343e-02,-4.44,-4.6
2.345e-02,-4.28,-4.04
2.347e-02,-3.88,-4.2
2.349e-02,-3.8,-3.56
2.351e-02,-3.8,-4.2
2.353e-02,-4.12,-3.64
2.355e-02,-4.6,-4.68
2.357e-02,-4.36,-3.72
2.359e-02,-4.6,-4.68
2.361e-02,-4.2,-3.72
2.363e-02,-4.36,-4.44
2.365e-02,-4.04,-3.56
2.366e-02,-4.04,-4.44
2.368e-02,-3.56,-3.48
2.370e-02,-3.88,-4.44
2.372e-02,-4.12,-3.72
2.374e-02,-4.04,-4.68
2.376e-02,-4.44,-3.72
2.378e-02,-3.8,-4.6
2.380e-02,-4.2,-3.48
2.382e-02,-4.28,-4.44
2.384e-02,-3.72,-3.64
2.386e-02,-4.04,-4.28
2.388e-02,-3.8,-3.56
2.389e-02,-4.2,-4.52
2.391e-02,-4.12,-3.96
2.393e-02,-4.28,-4.44
2.395e-02,-4.12,-3.8
2.397e-02,-4.12,-4.44
2.399e-02,-4.04,-3.88
2.401e-02,-3.8,-4.36
2.403e-02,-4.12,-3.56
2.405e-02,-3.96,-4.36
2.407e-02,-4.2,-3.88
2.409e-02,-4.68,-4.76
2.411e-02,-3.96,-3.48
2.413e-02,-4.04,-4.36
2.414e-02,-4.28,-3.56
2.416e-02,-3.56,-4.2
2.418e-02,-4.04,-3.48
2.420e-02,-3.96,-4.52
2.422e-02,-4.12,-3.56
2.424e-02,-4.44,-4.6
2.426e-02,-4.12,-3.96
2.428e-02,-4.04,-4.36
2.430e-02,-3.88,-3.56
2.432e-02,-4.04,-4.2
2.434e-02,-3.96,-3.16
2.436e-02,-3.96,-4.44
2.437e-02,-4.2,-3.72
2.439e-02,-4.04,-4.52
2.441e-02,-4.28,-3.88
2.443e-02,-4.12,-4.36
2.445e-02,-4.12,-3.8
2.447e-02,-4.2,-4.36
2.449e-02,-3.8,-3.48
2.451e-02,-3.8,-4.68
2.453e-02,-4.12,-3.64
2.455e-02,-4.2,-4.6
2.457e-02,-3.96,-3.56
2.459e-02,-4.28,-4.52
2.461e-02,-4.04,-3.8
2.462e-02,-4.44,-4.68
2.464e-02,-3.96,-3.48
2.466e-02,-3.88,-4.44
2.468e-02,-4.28,-3.48
2.470e-02,-3.72,-4.52
2.472e-02,-4.04,-3.4
2.474e-02,-4.04,-4.52
2.476e-02,-4.28,-3.8
2.478e-02,-4.04,-4.36
2.480e-02,-4.2,-3.64
2.482e-02,-4.04,-4.44
2.484e-02,-3.72,-3.64
2.485e-02,-4.36,-4.52
2.487e-02,-4.2,-3.64
2.489e-02,-4.2,-4.36
2.491e-02,-4.04,-3.56
2.493e-02,-4.28,-4.44
2.495e-02,-3.88,-3.56
2.497e-02,-4.12,-4.52
2.499e-02,-3.8,-3.56
2.501e-02,-4.12,-4.52
2.503e-02,-4.12,-3.64
2.505e-02,-3.96,-4.92
2.507e-02,-4.28,-3.88
2.509e-02,-4.36,-4.84
2.510e-02,-4.04,-3.88
2.512e-02,-4.04,-4.84
2.514e-02,-3.64,-3.4
2.516e-02,-4.2,-4.36
2.518e-02,-4.2,-3.8
2.520e-02,-4.44,-4.52
2.522e-02,-3.96,-3.8
2.524e-02,-3.88,-4.36
2.526e-02,-4.2,-3.72
2.528e-02,-3.96,-4.44
2.530e-02,-4.2,-3.72
2.532e-02,-4.12,-4.28
2.534e-02,-4.12,-3.72
2.535e-02,-4.12,-4.44
2.537e-02,-3.88,-3.56
2.539e-02,-4.28,-4.52
2.541e-02,-4.44,-4.12
2.543e-02,-4.04,-4.44
2.545e-02,-3.56,-3.4
2.547e-02,-4.6,-4.68
2.549e-02,-3.96,-3.4
2.551e-02,-3.32,-4.52
2.553e-02,-4.12,-3.08
2.555e-02,-3.8,-4.68
2.557e-02,-4.44,-3.64
2.558e-02,-4.52,-4.6
2.560e-02,-4.12,-4.04
2.562e-02,-4.36,-4.68
2.564e-02,-3.88,-3.48
2.566e-02,-3.88,-4.44
2.568e-02,-3.88,-3.72
2.570e-02,-4.28,-4.6
2.572e-02,-4.04,-3.72
2.574e-02,-4.04,-4.6
2.576e-02,-3.96,-3.56
2.578e-02,-4.12,-4.52
2.580e-02,-3.64,-3.48
2.582e-02,-4.12,-4.36
2.583e-02,-3.8,-3.72
2.585e-02,-4.04,-4.52
2.587e-02,-4.44,-3.72
2.589e-02,-4.28,-4.6
2.591e-02,-4.44,-4.04
2.593e-02,-4.04,-4.28
2.595e-02,-3.88,-3.72
2.597e-02,-3.88,-4.44
2.599e-02,-3.56,-3.48
2.601e-02,-3.96,-4.6
2.603e-02,-4.52,-3.88
2.605e-02,-4.2,-4.6
2.606e-02,-4.44,-3.96
2.608e-02,-4.12,-4.6
2.610e-02,-4.2,-3.88
2.612e-02,-4.28,-4.52
2.614e-02,-3.8,-3.64
2.616e-02,-4.04,-4.52
2.618e-02,-4.12,-3.8
2.620e-02,-4.36,-4.68
2.622e-02,-4.12,-3.8
2.624e-02,-3.88,-4.36
2.626e-02,-3.88,-3.72
2.628e-02,-4.36,-4.52
2.630e-02,-4.2,-3.72
2.631e-02,-3.96,-4.28
2.633e-02,-3.72,-3.64
2.635e-02,-3.88,-4.28
2.637e-02,-3.8,-3.56
2.639e-02,-4.04,-4.76
2.641e-02,-4.68,-3.4
2.643e-02,-3.96,-4.12
2.645e-02,-3.96,-3.72
2.647e-02,-3.8,-4.44
2.649e-02,-3.56,-3.48
2.651e-02,-4.04,-4.36
2.653e-02,-4.2,-3.8
2.654e-02,-4.04,-4.52
2.656e-02,-4.2,-3.8
2.658e-02,-4.04,-4.6
2.660e-02,-3.72,-3.56
2.662e-02,-3.72,-4.52
2.664e-02,-3.8,-3.56
2.666e-02,-3.64,-4.44
2.668e-02,-4.04,-3.56
2.670e-02,-4.28,-4.52
2.672e-02,-4.36,-3.8
2.674e-02,-4.28,-4.52
2.676e-02,-4.2,-3.8
2.678e-02,-4.2,-4.44
2.679e-02,-4.12,-3.8
2.681e-02,-3.56,-4.52
2.683e-02,-4.28,-3.4
2.685e-02,-3.88,-4.36
2.687e-02,-3.8,-3.48
2.689e-02,-3.96,-4.52
2.691e-02,-4.36,-3.8
2.693e-02,-3.88,-4.2
2.695e-02,-3.88,-3.64
2.697e-02,-3.64,-3.96
2.699e-02,-3.72,-3.4
2.701e-02,-3.96,-4.44
2.702e-02,-3.96,-3.72
2.704e-02,-4.12,-4.44
2.706e-02,-3.88,-3.8
2.708e-02,-4.12,-4.36
2.710e-02,-4.28,-3.72
2.712e-02,-3.88,-4.2
2.714e-02,-3.88,-3.64
2.716e-02,-4.2,-4.52
2.718e-02,-3.96,-3.64
2.720e-02,-4.12,-4.52
2.722e-02,-3.96,-3.64
2.724e-02,-4.44,-4.6
2.726e-02,-3.88,-3.72
2.727e-02,-3.88,-4.44
2.729e-02,-3.8,-3.64
2.731e-02,-3.64,-4.36
2.733e-02,-3.64,-3.48
2.735e-02,-4.28,-4.52
2.737e-02,-4.04,-3.8
2.739e-02,-4.2,-4.52
2.741e-02,-4.2,-3.88
2.743e-02,-3.8,-4.44
2.745e-02,-3.96,-3.48
2.747e-02,-3.96,-4.28
2.749e-02,-3.72,-3.4
2.750e-02,-3.88,-4.44
2.752e-02,-3.96,-3.48
2.754e-02,-3.8,-4.44
2.756e-02,-4.04,-3.56
2.758e-02,-4.36,-4.52
2.760e-02,-3.8,-3.64
2.762e-02,-3.88,-4.12
2.764e-02,-3.48,-3.32
2.766e-02,-4.12,-4.28
2.768e-02,-3.64,-3.56
2.770e-02,-4.04,-4.52
2.772e-02,-4.2,-3.72
2.774e-02,-3.72,-4.6
2.775e-02,-4.04,-3.56
2.777e-02,-3.8,-4.36
2.779e-02,-3.96,-3.56
2.781e-02,-4.04,-4.28
2.783e-02,-4.12,-3.72
2.785e-02,-3.96,-4.28
2.787e-02,-3.88,-3.8
2.789e-02,-4.36,-4.68
2.791e-02,-4.28,-4.12
2.793e-02,-4.2,-4.36
2.795e-02,-3.8,-3.64
2.797e-02,-4.2,-4.44
2.798e-02,-4.04,-3.72
2.800e-02,-4.2,-4.52
2.802e-02,-4.44,-3.64
2.804e-02,-4.12,-4.6
2.806e-02,-4.36,-3.88
2.808e-02,-3.88,-4.52
2.810e-02,-4.12,-3.72
2.812e-02,-3.96,-4.28
2.814e-02,-3.88,-3.64
2.816e-02,-3.72,-4.12
2.818e-02,-4.04,-3.56
2.820e-02,-4.12,-4.28
2.822e-02,-3.8,-3.56
2.823e-02,-3.96,-4.44
2.825e-02,-3.72,-3.64
2.827e-02,-4.12,-4.6
2.829e-02,-3.88,-3.72
2.831e-02,-3.8,-4.28
2.833e-02,-3.8,-3.64
2.835e-02,-3.8,-4.36
2.837e-02,-3.8,-3.72
2.839e-02,-4.2,-4.52
2.841e-02,-4.04,-3.88
2.843e-02,-3.88,-4.28
2.845e-02,-3.72,-3.56
2.846e-02,-3.96,-4.44
2.848e-02,-4.12,-3.72
2.850e-02,-4.28,-4.44
2.852e-02,-4.12,-3.56
2.854e-02,-4.36,-4.52
2.856e-02,-4.28,-3.56
2.858e-02,-4.04,-4.36
2.860e-02,-4.12,-3.56
2.862e-02,-3.56,-4.28
2.864e-02,-4.12,-3.4
2.866e-02,-3.88,-4.36
2.868e-02,-4.2,-3.72
2.870e-02,-3.88,-4.52
2.871e-02,-3.96,-3.72
2.873e-02,-4.12,-4.52
2.875e-02,-4.12,-3.72
2.877e-02,-3.72,-4.2
2.879e-02,-3.88,-3.32
2.881e-02,-4.44,-4.52
2.883e-02,-3.8,-3.48
2.885e-02,-3.96,-4.44
2.887e-02,-4.04,-3.88
2.889e-02,-4.04,-4.44
2.891e-02,-3.72,-3.48
2.893e-02,-4.04,-4.28
2.894e-02,-3.88,-3.48
2.896e-02,-3.72,-4.2
2.898e-02,-4.12,-3.48
2.900e-02,-3.64,-4.44
2.902e-02,-4.04,-3.32
2.904e-02,-4.12,-4.28
2.906e-02,-3.88,-3.8
2.908e-02,-4.12,-4.6
2.910e-02,-4.44,-3.88
2.912e-02,-3.96,-4.44
2.914e-02,-4.04,-3.72
2.916e-02,-3.8,-4.36
2.918e-02,-4.12,-3.48
2.919e-02,-3.72,-4.6
2.921e-02,-3.72,-3.56
2.923e-02,-4.52,-4.68
2.925e-02,-3.96,-3.72
2.927e-02,-3.96,-4.36
2.929e-02,-3.96,-3.72
2.931e-02,-3.8,-4.28
2.933e-02,-3.88,-3.64
2.935e-02,-4.04,-4.68
2.937e-02,-4.52,-3.8
2.939e-02,-3.96,-4.2
2.941e-02,-3.88,-3.72
2.942e-02,-4.2,-4.36
2.944e-02,-3.88,-3.72
2.946e-02,-4.04,-4.2
2.948e-02,-3.96,-3.72
2.950e-02,-3.96,-4.68
2.952e-02,-4.6,-3.56
2.954e-02,-4.28,-4.36
2.956e-02,-4.04,-3.56
2.958e-02,-4.12,-4.28
2.960e-02,-3.96,-3.48
2.962e-02,-3.56,-4.04
2.964e-02,-3.96,-3.48
2.966e-02,-4.04,-4.36
2.967e-02,-4.2,-3.48
2.969e-02,-3.88,-4.36
2.971e-02,-4.2,-3.72
2.973e-02,-3.88,-4.28
2.975e-02,-3.56,-3.48
2.977e-02,-4.2,-4.28
2.979e-02,-3.96,-3.32
2.981e-02,-3.8,-4.36
2.983e-02,-4.2,-3.48
2.985e-02,-3.88,-4.52
2.987e-02,-3.88,-3.56
2.989e-02,-3.96,-4.36
2.990e-02,-4.28,-3.64
2.992e-02,-3.96,-4.44
2.994e-02,-3.96,-3.32
2.996e-02,-4.2,-4.52
2.998e-02,-3.8,-3.48
3.000e-02,-3.96,-4.36
3.002e-02,-3.8,-3.72
3.004e-02,-3.64,-4.36
3.006e-02,-3.88,-3.56
3.008e-02,-4.36,-4.52
3.010e-02,-4.04,-3.96
3.012e-02,-4.12,-4.28
3.014e-02,-3.88,-3.56
3.015e-02,-4.12,-4.28
3.017e-02,-3.72,-3.64
3.019e-02,-4.2,-4.68
3.021e-02,-4.36,-3.96
3.023e-02,-4.04,-4.36
3.025e-02,-3.56,-3.48
3.027e-02,-3.96,-4.36
3.029e-02,-3.96,-3.64
3.031e-02,-4.28,-4.44
3.033e-02,-3.96,-3.88
3.035e-02,-4.12,-4.36
3.037e-02,-3.8,-3.72
3.038e-02,-4.2,-4.52
3.040e-02,-4.04,-3.64
3.042e-02,-3.64,-4.36
3.044e-02,-3.4,-3.32
3.046e-02,-3.88,-4.28
3.048e-02,-3.48,-3.16
3.050e-02,-4.2,-4.28
3.052e-02,-3.88,-3.72
3.054e-02,-4.04,-4.36
3.056e-02,-4.04,-3.56
3.058e-02,-4.44,-4.68
3.060e-02,-4.2,-3.56
3.062e-02,-4.04,-4.44
3.063e-02,-3.72,-3.56
3.065e-02,-4.36,-4.44
3.067e-02,-4.12,-3.56
3.069e-02,-3.88,-4.28
3.071e-02,-4.12,-3.8
3.073e-02,-3.96,-4.12
3.075e-02,-3.88,-3.56
3.077e-02,-3.8,-4.36
3.079e-02,-4.12,-3.64
3.081e-02,-3.88,-4.52
3.083e-02,-3.8,-3.56
3.085e-02,-4.12,-4.44
3.086e-02,-4.28,-3.88
3.088e-02,-4.2,-4.44
3.090e-02,-3.96,-3.8
3.092e-02,-4.04,-4.52
3.094e-02,-4.12,-3.64
3.096e-02,-3.88,-4.28
3.098e-02,-4.12,-3.56
3.100e-02,-4.44,-4.6
3.102e-02,-3.88,-3.72
3.104e-02,-4.28,-4.76
3.106e-02,-3.96,-3.8
3.108e-02,-4.04,-4.36
3.110e-02,-3.96,-3.64
3.111e-02,-3.8,-4.52
3.113e-02,-3.48,-3.4
3.115e-02,-4.28,-4.52
3.117e-02,-4.12,-3.8
3.119e-02,-3.8,-4.76
3.121e-02,-4.6,-3.72
3.123e-02,-3.96,-4.6
3.125e-02,-4.04,-3.72
3.127e-02,-3.8,-4.2
3.129e-02,-3.88,-3.72
3.131e-02,-3.88,-4.2
3.133e-02,-4.04,-3.72
3.135e-02,-4.2,-4.44
3.136e-02,-4.2,-3.8
3.138e-02,-3.8,-4.52
3.140e-02,-4.28,-3.64
3.142e-02,-4.12,-4.68
3.144e-02,-4.04,-3.72
3.146e-02,-4.12,-4.36
3.148e-02,-4.12,-3.88
3.150e-02,-3.96,-4.6
3.152e-02,-4.28,-3.72
3.154e-02,-4.12,-4.68
3.156e-02,-4.28,-3.56
3.158e-02,-4.12,-4.28
3.159e-02,-3.96,-3.72
3.161e-02,-3.96,-4.12
3.163e-02,-3.8,-3.64
3.165e-02,-4.12,-4.44
3.167e-02,-4.28,-3.64
3.169e-02,-4.12,-4.44
3.171e-02,-4.2,-3.48
3.173e-02,-4.44,-4.6
3.175e-02,-3.88,-3.4
3.177e-02,-3.64,-4.36
3.179e-02,-4.28,-3.56
3.181e-02,-4.04,-4.44
3.183e-02,-4.2,-3.72
3.184e-02,-4.36,-4.76
3.186e-02,-4.6,-3.88
3.188e-02,-4.04,-4.28
3.190e-02,-3.96,-3.48
3.192e-02,-4.04,-4.2
3.194e-02,-3.88,-3.56
3.196e-02,-3.96,-4.36
3.198e-02,-3.8,-3.72
3.200e-02,-4.36,-4.6
3.202e-02,-4.28,-3.72
3.204e-02,-4.44,-4.68
3.206e-02,-4.12,-3.96
3.207e-02,-3.72,-4.28
3.209e-02,-3.56,-3.4
3.211e-02,-4.12,-4.36
3.213e-02,-3.56,-3.48
3.215e-02,-4.2,-4.28
3.217e-02,-3.96,-3.8
3.219e-02,-4.2,-4.76
3.221e-02,-4.68,-3.72
3.223e-02,-4.04,-4.28
3.225e-02,-3.72,-3.56
3.227e-02,-3.8,-4.2
3.229e-02,-3.96,-3.64
3.231e-02,-4.04,-4.6
3.232e-02,-4.52,-3.72
3.234e-02,-4.44,-4.76
3.236e-02,-4.36,-3.88
3.238e-02,-4.44,-4.6
3.240e-02,-3.8,-3.56
3.242e-02,-3.64,-4.44
3.244e-02,-3.72,-3.48
3.246e-02,-3.72,-4.44
3.248e-02,-4.2,-3.64
3.250e-02,-3.88,-4.6
3.252e-02,-4.52,-3.72
3.254e-02,-3.88,-4.2
3.255e-02,-3.8,-3.56
3.257e-02,-4.2,-4.28
3.259e-02,-3.8,-3.64
3.261e-02,-3.8,-4.52
3.263e-02,-4.44,-3.56
3.265e-02,-4.12,-4.52
3.267e-02,-4.28,-3.64
3.269e-02,-3.88,-4.36
3.271e-02,-3.88,-3.72
3.273e-02,-4.44,-4.6
3.275e-02,-3.56,-3.32
3.277e-02,-4.44,-4.52
3.279e-02,-3.8,-3.72
3.280e-02,-4.04,-4.68
3.282e-02,-4.52,-3.8
3.284e-02,-4.04,-4.6
3.286e-02,-3.64,-3.32
3.288e-02,-3.8,-4.2
3.290e-02,-3.88,-3.56
3.292e-02,-4.12,-4.52
3.294e-02,-4.04,-3.8
3.296e-02,-4.12,-4.6
3.298e-02,-4.04,-3.8
3.300e-02,-4.28,-4.52
3.302e-02,-4.12,-3.96
3.303e-02,-4.28,-4.52
3.305e-02,-4.36,-3.8
3.307e-02,-3.96,-4.28
3.309e-02,-4.04,-3.64
3.311e-02,-4.04,-4.36
3.313e-02,-4.28,-3.56
3.315e-02,-4.04,-4.52
3.317e-02,-4.2,-3.88
3.319e-02,-4.28,-4.6
3.321e-02,-3.96,-3.8
3.323e-02,-4.12,-4.52
3.325e-02,-3.88,-3.64
3.327e-02,-3.88,-4.28
3.328e-02,-3.8,-3.72
3.330e-02,-4.36,-4.52
3.332e-02,-4.04,-3.64
3.334e-02,-4.28,-4.52
3.336e-02,-4.04,-3.8
3.338e-02,-4.2,-4.36
3.340e-02,-4.04,-3.88
3.342e-02,-4.04,-4.2
3.344e-02,-3.96,-3.8
3.346e-02,-3.64,-4.44
3.348e-02,-4.36,-3.48
3.350e-02,-4.28,-4.44
3.351e-02,-4.28,-3.72
3.353e-02,-3.56,-4.12
3.355e-02,-3.88,-3.4
3.357e-02,-3.88,-4.28
3.359e-02,-4.12,-3.48
3.361e-02,-4.04,-4.36
3.363e-02,-3.72,-3.56
3.365e-02,-4.36,-4.44
3.367e-02,-4.36,-3.64
3.369e-02,-4.04,-4.6
3.371e-02,-4.44,-3.72
3.373e-02,-4.04,-4.36
3.375e-02,-3.8,-3.56
3.376e-02,-3.8,-4.52
3.378e-02,-4.36,-3.72
3.380e-02,-4.04,-4.44
3.382e-02,-4.2,-3.64
3.384e-02,-4.2,-4.44
3.386e-02,-3.96,-3.8
3.388e-02,-4.2,-4.52
3.390e-02,-4.04,-3.48
3.392e-02,-4.04,-4.36
3.394e-02,-3.96,-3.64
3.396e-02,-4.04,-4.44
3.398e-02,-4.2,-3.96
3.399e-02,-4.28,-4.76
3.401e-02,-3.96,-3.72
3.403e-02,-3.64,-4.6
3.405e-02,-4.44,-3.56
3.407e-02,-4.04,-4.36
3.409e-02,-3.8,-3.72
3.411e-02,-3.72,-4.52
3.413e-02,-4.28,-3.32
3.415e-02,-4.28,-4.52
3.417e-02,-3.8,-3.72
3.419e-02,-4.2,-4.6
3.421e-02,-4.28,-3.88
3.423e-02,-3.88,-4.36
3.424e-02,-4.04,-3.64
3.426e-02,-3.96,-4.44
3.428e-02,-4.2,-3.8
3.430e-02,-4.36,-4.68
3.432e-02,-4.6,-3.96
3.434e-02,-4.28,-4.68
3.436e-02,-3.96,-3.56
3.438e-02,-4.28,-4.44
3.440e-02,-3.96,-3.48
3.442e-02,-3.96,-4.28
3.444e-02,-4.04,-3.56
3.446e-02,-4.2,-4.28
3.447e-02,-4.2,-3.64
3.449e-02,-4.2,-4.76
3.451e-02,-4.04,-3.8
3.453e-02,-4.2,-4.76
3.455e-02,-4.04,-3.88
3.457e-02,-3.96,-4.52
3.459e-02,-3.56,-3.48
3.461e-02,-4.04,-4.76
3.463e-02,-3.96,-3.72
3.465e-02,-3.88,-4.44
3.467e-02,-3.96,-3.56
3.469e-02,-4.2,-4.36
3.471e-02,-4.04,-3.88
3.472e-02,-4.12,-4.6
3.474e-02,-4.12,-3.8
3.476e-02,-4.12,-4.28
3.478e-02,-3.88,-3.72
3.480e-02,-4.28,-4.6
3.482e-02,-3.96,-3.8
3.484e-02,-4.28,-4.6
3.486e-02,-3.8,-3.72
3.488e-02,-3.64,-4.52
3.490e-02,-4.28,-3.48
3.492e-02,-4.2,-4.52
3.494e-02,-4.04,-3.64
3.495e-02,-3.88,-4.52
3.497e-02,-4.36,-3.8
3.499e-02,-4.36,-4.52
3.501e-02,-4.2,-3.8
3.503e-02,-3.88,-4.36
3.505e-02,-3.96,-3.56
3.507e-02,-3.96,-4.52
3.509e-02,-4.04,-3.56
3.511e-02,-3.8,-4.52
3.513e-02,-3.96,-3.64
3.515e-02,-4.12,-4.6
3.517e-02,-4.28,-3.8
3.519e-02,-4.44,-4.52
3.520e-02,-4.04,-3.56
3.522e-02,-4.04,-4.2
3.524e-02,-3.72,-3.64
3.526e-02,-4.04,-4.44
3.528e-02,-4.28,-3.8
3.530e-02,-3.96,-4.84
3.532e-02,-4.68,-3.88
3.534e-02,-4.28,-4.44
3.536e-02,-4.28,-3.72
3.538e-02,-3.96,-4.28
3.540e-02,-3.96,-3.64
3.542e-02,-4.28,-4.36
3.543e-02,-3.96,-3.72
3.545e-02,-4.28,-4.76
3.547e-02,-4.52,-4.04
3.549e-02,-4.12,-4.52
3.551e-02,-3.96,-3.8
3.553e-02,-4.2,-4.36
3.555e-02,-4.04,-3.8
3.557e-02,-4.36,-4.44
3.559e-02,-4.2,-3.72
3.561e-02,-4.36,-4.52
3.563e-02,-4.12,-3.72
3.565e-02,-4.36,-4.68
3.567e-02,-4.6,-3.8
3.568e-02,-4.28,-4.6
3.570e-02,-4.28,-3.8
3.572e-02,-3.72,-4.52
3.574e-02,-3.96,-3.56
3.576e-02,-4.36,-4.44
3.578e-02,-3.72,-3.48
3.580e-02,-3.8,-4.92
3.582e-02,-4.76,-3.72
3.584e-02,-4.12,-4.68
3.586e-02,-4.52,-3.72
3.588e-02,-3.88,-4.36
3.590e-02,-4.12,-3.64
3.591e-02,-3.96,-4.52
3.593e-02,-3.96,-3.64
3.595e-02,-4.36,-4.68
3.597e-02,-4.52,-3.64
3.599e-02,-4.52,-4.92
3.601e-02,-3.88,-3.56
3.603e-02,-3.96,-4.76
3.605e-02,-4.44,-3.72
3.607e-02,-3.96,-4.44
3.609e-02,-4.28,-3.8
3.611e-02,-4.28,-4.44
3.613e-02,-3.8,-3.64
3.615e-02,-4.36,-4.68
3.616e-02,-4.6,-4.04
3.618e-02,-3.96,-4.52
3.620e-02,-4.04,-3.64
3.622e-02,-3.88,-4.2
3.624e-02,-3.88,-3.72
3.626e-02,-4.12,-4.52
3.628e-02,-4.2,-3.8
3.630e-02,-4.6,-4.84
3.632e-02,-4.28,-3.96
3.634e-02,-4.52,-4.68
3.636e-02,-4.12,-3.88
3.638e-02,-3.88,-4.52
3.639e-02,-4.12,-3.72
3.641e-02,-4.28,-4.68
3.643e-02,-4.6,-3.96
3.645e-02,-4.52,-4.84
3.647e-02,-4.36,-3.88
3.649e-02,-4.52,-4.76
3.651e-02,-4.36,-3.96
3.653e-02,-4.12,-4.52
3.655e-02,-4.28,-4.04
3.657e-02,-3.88,-4.52
3.659e-02,-4.12,-3.8
3.661e-02,-3.88,-4.52
3.663e-02,-4.36,-3.64
3.664e-02,-4.52,-4.6
3.666e-02,-4.36,-3.88
3.668e-02,-4.04,-4.44
3.670e-02,-4.12,-3.96
3.672e-02,-4.12,-4.52
3.674e-02,-4.36,-3.56
3.676e-02,-4.2,-4.52
3.678e-02,-4.44,-3.72
3.680e-02,-4.44,-4.6
3.682e-02,-4.44,-3.72
3.684e-02,-4.2,-4.6
3.686e-02,-4.04,-3.8
3.687e-02,-4.36,-4.6
3.689e-02,-4.44,-3.72
3.691e-02,-4.2,-4.52
3.693e-02,-4.2,-3.56
3.695e-02,-4.28,-4.52
3.697e-02,-3.8,-3.56
3.699e-02,-4.36,-4.76
3.701e-02,-3.8,-3.64
3.703e-02,-4.12,-4.52
3.705e-02,-4.44,-3.88
3.707e-02,-4.04,-4.36
3.709e-02,-3.72,-3.64
3.711e-02,-4.2,-4.52
3.712e-02,-4.36,-3.72
3.714e-02,-4.36,-4.92
3.716e-02,-4.28,-3.72
3.718e-02,-4.44,-4.92
3.720e-02,-3.8,-3.56
3.722e-02,-3.72,-4.2
3.724e-02,-4.04,-3.48
3.726e-02,-4.28,-4.44
3.728e-02,-3.96,-3.88
3.730e-02,-4.36,-4.44
3.732e-02,-4.04,-3.8
3.734e-02,-4.28,-4.52
3.735e-02,-4.2,-3.96
3.737e-02,-3.96,-4.44
3.739e-02,-4.28,-3.88
3.741e-02,-4.12,-4.76
3.743e-02,-4.04,-3.72
3.745e-02,-4.36,-4.52
3.747e-02,-4.12,-3.64
3.749e-02,-4.28,-4.68
3.751e-02,-3.8,-3.64
3.753e-02,-3.88,-4.68
3.755e-02,-3.96,-3.64
3.757e-02,-4.28,-4.44
3.759e-02,-4.2,-3.56
3.760e-02,-4.04,-4.36
3.762e-02,-3.96,-3.56
3.764e-02,-4.12,-4.68
3.766e-02,-4.52,-3.88
3.768e-02,-4.2,-4.28
3.770e-02,-3.72,-3.48
3.772e-02,-4.04,-4.36
3.774e-02,-3.88,-3.64
3.776e-02,-4.28,-4.68
3.778e-02,-4.36,-3.88
3.780e-02,-3.8,-4.44
3.782e-02,-4.12,-3.64
3.784e-02,-4.04,-4.28
3.785e-02,-3.72,-3.64
3.787e-02,-3.8,-4.52
3.789e-02,-3.72,-3.56
3.791e-02,-4.36,-4.52
3.793e-02,-3.96,-3.72
3.795e-02,-3.96,-4.52
3.797e-02,-4.44,-3.72
3.799e-02,-4.12,-4.52
3.801e-02,-4.36,-3.8
3.803e-02,-4.28,-4.6
3.805e-02,-3.56,-3.4
3.807e-02,-4.04,-4.36
3.808e-02,-3.64,-3.48
3.810e-02,-3.96,-4.2
3.812e-02,-3.72,-3.56
3.814e-02,-3.96,-4.44
3.816e-02,-4.04,-3.8
3.818e-02,-3.8,-4.28
3.820e-02,-3.96,-3.48
3.822e-02,-4.12,-4.2
3.824e-02,-3.96,-3.56
3.826e-02,-3.96,-4.2
3.828e-02,-4.04,-3.72
3.830e-02,-3.72,-4.28
3.832e-02,-3.72,-3.32
3.833e-02,-3.96,-4.36
3.835e-02,-3.96,-3.56
3.837e-02,-4.04,-4.2
3.839e-02,-3.64,-3.32
3.841e-02,-4.04,-4.2
3.843e-02,-4.04,-3.56
3.845e-02,-3.64,-4.44
3.847e-02,-4.2,-3.48
3.849e-02,-4.12,-4.52
3.851e-02,-4.12,-3.64
3.853e-02,-3.56,-3.96
3.855e-02,-3.72,-3.08
3.856e-02,-3.08,-4.04
3.858e-02,-3.8,-2.84
3.860e-02,-3.96,-4.28
3.862e-02,-3.8,-3.48
3.864e-02,-4.04,-4.36
3.866e-02,-3.72,-3.32
3.868e-02,-3.56,-4.2
3.870e-02,-3.88,-3.24
3.872e-02,-3.72,-4.28
3.874e-02,-3.56,-3.4
3.876e-02,-3.88,-4.04
3.878e-02,-3.8,-3.4
3.880e-02,-3.96,-4.2
3.881e-02,-3.64,-3.32
3.883e-02,-3.72,-3.96
3.885e-02,-3.56,-3.4
3.887e-02,-3.56,-3.96
3.889e-02,-3.64,-3.32
3.891e-02,-3.8,-4.12
3.893e-02,-3.48,-3.4
3.895e-02,-3.96,-4.12
3.897e-02,-3.88,-3.48
3.899e-02,-3.72,-3.88
3.901e-02,-3.56,-3.4
3.903e-02,-3.4,-3.96
3.904e-02,-3.64,-3.24
3.906e-02,-3.48,-3.88
3.908e-02,-3.56,-3.4
3.910e-02,-3.72,-3.96
3.912e-02,-3.72,-3.4
3.914e-02,-3.64,-3.8
3.916e-02,-3.32,-3.16
3.918e-02,-3.72,-3.8
3.920e-02,-3.32,-3
3.922e-02,-3.24,-3.72
3.924e-02,-3.64,-3.16
3.926e-02,-3.64,-4.28
3.928e-02,-4.12,-3.56
3.929e-02,-3.56,-3.88
3.931e-02,-3.64,-3.24
3.933e-02,-4.04,-4.2
3.935e-02,-3.64,-3
3.937e-02,-3.32,-3.72
3.939e-02,-3.4,-2.84
3.941e-02,-3.48,-3.96
3.943e-02,-3.64,-3.08
3.945e-02,-3.72,-3.96
3.947e-02,-3.32,-3.24
3.949e-02,-3.32,-3.88
3.951e-02,-3.4,-3
3.952e-02,-3.16,-3.72
3.954e-02,-3.64,-2.84
3.956e-02,-3.56,-3.8
3.958e-02,-3.4,-3.24
3.960e-02,-3.32,-3.88
3.962e-02,-3.64,-2.92
3.964e-02,-3.8,-4.04
3.966e-02,-3.56,-3
3.968e-02,-3.08,-3.64
3.970e-02,-3.24,-2.92
3.972e-02,-3.4,-3.72
3.974e-02,-3.24,-3
3.976e-02,-3.4,-3.72
3.977e-02,-3.32,-3.24
3.979e-02,-3.16,-3.56
3.981e-02,-3.48,-3
3.983e-02,-3.16,-3.48
3.985e-02,-2.84,-2.68
3.987e-02,-3,-3.4
3.989e-02,-3.32,-2.76
3.991e-02,-2.92,-3.56
3.993e-02,-3.4,-2.6
3.995e-02,-3.24,-3.48
3.997e-02,-3.16,-3
3.999e-02,-3.4,-3.48
4.000e-02,-3.08,-2.36
4.002e-02,-3.16,-3.32
4.004e-02,-2.84,-2.6
4.006e-02,-3.08,-3.4
4.008e-02,-3,-2.68
4.010e-02,-3,-3.64
4.012e-02,-3.4,-2.92
4.014e-02,-3.32,-3.48
4.016e-02,-2.68,-2.6
4.018e-02,-2.84,-3.32
4.020e-02,-2.68,-2.6
4.022e-02,-2.52,-3.16
4.024e-02,-3,-2.36
4.025e-02,-3.08,-3.32
4.027e-02,-3.16,-2.52
4.029e-02,-2.92,-3.16
4.031e-02,-2.92,-2.6
4.033e-02,-2.68,-2.92
4.035e-02,-2.6,-2.44
4.037e-02,-2.52,-3.08
4.039e-02,-2.92,-2.28
4.041e-02,-2.6,-3.32
4.043e-02,-3.08,-2.36
4.045e-02,-2.68,-3.32
4.047e-02,-3.16,-2.52
4.048e-02,-3.16,-3.4
4.050e-02,-2.68,-2.36
4.052e-02,-2.6,-2.76
4.054e-02,-2.2,-2.12
4.056e-02,-2.52,-2.68
4.058e-02,-2.36,-2.04
4.060e-02,-2.76,-3.24
4.062e-02,-2.6,-2.28
4.064e-02,-3,-3.48
4.066e-02,-2.44,-2.36
4.068e-02,-2.68,-3.08
4.070e-02,-2.52,-2.04
4.072e-02,-2.2,-3.08
4.073e-02,-2.52,-2.04
4.075e-02,-2.36,-2.84
4.077e-02,-2.44,-2.04
4.079e-02,-2.52,-2.92
4.081e-02,-2.76,-2.2
4.083e-02,-2.44,-2.6
4.085e-02,-2.44,-1.88
4.087e-02,-2.12,-2.52
4.089e-02,-2.44,-1.88
4.091e-02,-2.28,-2.52
4.093e-02,-2.36,-1.88
4.095e-02,-2.44,-2.6
4.096e-02,-2.12,-1.88
4.098e-02,-2.2,-2.44
4.100e-02,-2.04,-1.64
4.102e-02,-2.2,-2.52
4.104e-02,-2.04,-1.72
4.106e-02,-1.64,-2.28
4.108e-02,-2.12,-1.56
4.110e-02,-1.88,-2.52
4.112e-02,-2.04,-1.72
4.114e-02,-2.2,-2.44
4.116e-02,-2.28,-1.4
4.118e-02,-1.96,-2.36
4.120e-02,-1.64,-1.32
4.121e-02,-1.72,-2.04
4.123e-02,-1.32,-1.24
4.125e-02,-2.44,-2.52
4.127e-02,-1.64,-1.4
4.129e-02,-1.96,-2.2
4.131e-02,-1.72,-1.4
4.133e-02,-1.8,-1.96
4.135e-02,-1.24,-1.08
4.137e-02,-1.08,-1.56
4.139e-02,-1.08,-1
4.141e-02,-1.32,-1.96
4.143e-02,-1.88,-1.08
4.144e-02,-1.48,-1.64
4.146e-02,-1.48,-0.84
4.148e-02,-1,-1.32
4.150e-02,-0.84,-0.68
4.152e-02,-1,-1.32
4.154e-02,-0.52,-0.44
4.156e-02,-0.76,-1.56
4.158e-02,-1.4,-0.68
4.160e-02,-0.92,-1.4
4.162e-02,-1.16,-0.6
4.164e-02,-0.68,-1.08
4.166e-02,-0.68,-0.44
4.168e-02,-0.52,-0.84
4.169e-02,-0.36,-0.04
4.171e-02,-0.84,-1
4.173e-02,-0.84,-0.28
4.175e-02,-0.52,-1.16
4.177e-02,-0.76,-0.36
4.179e-02,-0.76,-1.08
4.181e-02,-0.84,-0.52
4.183e-02,-0.6,-1.08
4.185e-02,-0.84,-0.28
4.187e-02,-0.6,-1.48
4.189e-02,-0.6,-0.44
4.191e-02,-1,-1.32
4.192e-02,-0.84,-0.52
4.194e-02,-0.36,-1.32
4.196e-02,-0.92,-0.28
4.198e-02,-0.76,-1.32
4.200e-02,-0.84,-0.44
4.202e-02,-1,-1.24
4.204e-02,-0.84,-0.44
4.206e-02,-1.16,-1.32
4.208e-02,-0.84,-0.6
4.210e-02,-1,-1.48
4.212e-02,-1.32,-0.76
4.214e-02,-1.16,-1.32
4.216e-02,-0.84,-0.52
4.217e-02,-1.24,-1.64
4.219e-02,-1.4,-0.84
4.221e-02,-1.08,-1.48
4.223e-02,-1,-0.76
4.225e-02,-1.24,-1.88
4.227e-02,-1.4,-0.92
4.229e-02,-1.48,-1.96
4.231e-02,-1.48,-1
4.233e-02,-1.48,-1.64
4.235e-02,-1.32,-1.08
4.237e-02,-1.4,-1.72
4.239e-02,-1.64,-1.08
4.240e-02,-1.4,-2.2
4.242e-02,-1.56,-1.16
4.244e-02,-1.4,-1.96
4.246e-02,-1.32,-1.24
4.248e-02,-1.72,-2.28
4.250e-02,-1.72,-1.4
4.252e-02,-1.88,-2.28
4.254e-02,-1.72,-1.4
4.256e-02,-1.72,-2.28
4.258e-02,-1.72,-1.4
4.260e-02,-2.04,-2.28
4.262e-02,-2.2,-1.64
4.264e-02,-2.04,-2.28
4.265e-02,-1.72,-1.48
4.267e-02,-1.8,-2.2
4.269e-02,-1.72,-1.4
4.271e-02,-2.2,-2.36
4.273e-02,-1.64,-1.4
4.275e-02,-1.96,-2.28
4.277e-02,-2.2,-1.56
4.279e-02,-2.12,-2.44
4.281e-02,-2.04,-1.72
4.283e-02,-2.28,-2.52
4.285e-02,-1.88,-1.56
4.287e-02,-2.04,-2.44
4.288e-02,-2.12,-1.8
4.290e-02,-2.52,-2.84
4.292e-02,-2.68,-1.96
4.294e-02,-2.12,-2.44
4.296e-02,-2.28,-1.8
4.298e-02,-1.96,-2.36
4.300e-02,-2.12,-1.72
4.302e-02,-2.12,-2.28
4.304e-02,-2.2,-1.56
4.306e-02,-2.28,-2.76
4.308e-02,-2.2,-1.88
4.310e-02,-2.52,-3
4.312e-02,-2.84,-2.2
4.313e-02,-2.28,-2.52
4.315e-02,-2.2,-1.88
4.317e-02,-2.52,-2.76
4.319e-02,-2.28,-2.04
4.321e-02,-2.52,-2.76
4.323e-02,-2.36,-2.04
4.325e-02,-2.52,-2.76
4.327e-02,-2.44,-2.2
4.329e-02,-2.6,-3
4.331e-02,-2.84,-2.2
4.333e-02,-2.52,-3
4.335e-02,-2.36,-2.2
4.336e-02,-2.76,-3.16
4.338e-02,-2.92,-2.44
4.340e-02,-2.68,-2.92
4.342e-02,-2.68,-2.36
4.344e-02,-2.92,-3.4
4.346e-02,-3.24,-2.68
4.348e-02,-2.92,-3.24
4.350e-02,-2.44,-2.36
4.352e-02,-2.6,-3.08
4.354e-02,-3,-2.52
4.356e-02,-2.68,-3.48
4.358e-02,-2.68,-2.04
4.360e-02,-3.08,-3.32
4.361e-02,-2.84,-2.52
4.363e-02,-2.84,-3.32
4.365e-02,-3.24,-2.44
4.367e-02,-2.76,-3.24
4.369e-02,-2.84,-2.6
4.371e-02,-2.92,-3.56
4.373e-02,-3.24,-2.6
4.375e-02,-3.08,-3.88
4.377e-02,-3.24,-2.76
4.379e-02,-2.6,-3.48
4.381e-02,-3,-2.52
4.383e-02,-3.08,-3.48
4.385e-02,-3.24,-2.92
4.386e-02,-3,-3.64
4.388e-02,-3.08,-2.68
4.390e-02,-3.48,-3.64
4.392e-02,-2.84,-2.6
4.394e-02,-3.48,-3.88
4.396e-02,-3.48,-3
4.398e-02,-3.32,-3.64
4.400e-02,-3.48,-2.92
4.402e-02,-3.08,-3.4
4.404e-02,-3.16,-2.84
4.406e-02,-3.16,-3.72
4.408e-02,-3.56,-2.84
4.409e-02,-3.64,-3.72
4.411e-02,-3.4,-2.92
4.413e-02,-3.32,-3.72
4.415e-02,-3.4,-3
4.417e-02,-3.48,-3.8
4.419e-02,-3.32,-3.16
4.421e-02,-3.64,-3.8
4.423e-02,-3.56,-3.08
4.425e-02,-3.72,-3.88
4.427e-02,-3.4,-3.24
4.429e-02,-3.32,-3.56
4.431e-02,-3.32,-3.08
4.433e-02,-3.48,-3.72
4.434e-02,-3.32,-3
4.436e-02,-3.16,-3.96
4.438e-02,-3.8,-3
4.440e-02,-3.64,-4.04
4.442e-02,-3.88,-3.32
4.444e-02,-3.72,-3.88
4.446e-02,-3.56,-3.16
4.448e-02,-3.72,-3.88
4.450e-02,-3.4,-3.16
4.452e-02,-3.96,-4.04
4.454e-02,-3.64,-3.24
4.456e-02,-3.8,-4.36
4.457e-02,-3.96,-3.32
4.459e-02,-3.32,-4.2
4.461e-02,-3.48,-3.24
4.463e-02,-3.48,-4.28
4.465e-02,-4.12,-3.4
4.467e-02,-3.48,-4.04
4.469e-02,-3.96,-3.4
4.471e-02,-3.72,-4.6
4.473e-02,-4.04,-3.48
4.475e-02,-3.72,-4.52
4.477e-02,-4.2,-3.56
4.479e-02,-4.12,-4.28
4.481e-02,-3.48,-3.32
4.482e-02,-3.88,-4.12
4.484e-02,-3.72,-3.56
4.486e-02,-3.72,-4.76
4.488e-02,-4.6,-3.48
4.490e-02,-3.8,-4.28
4.492e-02,-3.8,-3.48
4.494e-02,-4.04,-4.2
4.496e-02,-4.04,-3.56
4.498e-02,-3.72,-4.04
4.500e-02,-3.8,-3.56
4.502e-02,-3.72,-4.36
4.504e-02,-4.12,-3.56
4.505e-02,-4.04,-4.28
4.507e-02,-4.04,-3.8
4.509e-02,-4.2,-4.44
4.511e-02,-3.88,-3.72
4.513e-02,-3.88,-4.36
4.515e-02,-3.88,-3.72
4.517e-02,-3.88,-4.36
4.519e-02,-4.2,-3.64
4.521e-02,-3.88,-4.44
4.523e-02,-4.28,-3.8
4.525e-02,-4.28,-4.76
4.527e-02,-4.6,-3.96
4.529e-02,-4.04,-4.52
4.530e-02,-4.28,-3.64
4.532e-02,-3.72,-4.12
4.534e-02,-3.8,-3.4
4.536e-02,-3.64,-4.52
4.538e-02,-4.12,-3.4
4.540e-02,-4.12,-4.68
4.542e-02,-4.12,-3.88
4.544e-02,-4.12,-4.6
4.546e-02,-4.12,-3.96
4.548e-02,-3.96,-4.36
4.550e-02,-4.04,-3.72
4.552e-02,-4.04,-4.36
4.553e-02,-3.8,-3.72
4.555e-02,-3.72,-4.2
4.557e-02,-4.12,-3.64
4.559e-02,-4.28,-4.52
4.561e-02,-4.28,-3.8
4.563e-02,-4.28,-4.36
4.565e-02,-3.96,-3.4
4.567e-02,-4.04,-4.36
4.569e-02,-3.88,-3.8
4.571e-02,-3.8,-4.76
4.573e-02,-4.52,-3.72
4.575e-02,-4.2,-4.52
4.577e-02,-4.44,-3.8
4.578e-02,-4.04,-4.44
4.580e-02,-4.12,-3.8
4.582e-02,-3.96,-4.52
4.584e-02,-4.12,-3.8
4.586e-02,-3.96,-4.6
4.588e-02,-4.28,-3.64
4.590e-02,-4.28,-4.6
4.592e-02,-4.2,-3.8
4.594e-02,-4.04,-4.6
4.596e-02,-3.96,-3.88
4.598e-02,-4.52,-4.6
4.600e-02,-3.96,-3.8
4.601e-02,-4.28,-4.44
4.603e-02,-4.04,-3.88
4.605e-02,-4.12,-4.6
4.607e-02,-3.72,-3.64
4.609e-02,-4.28,-4.68
4.611e-02,-4.2,-3.8
4.613e-02,-4.36,-4.52
4.615e-02,-3.96,-3.64
4.617e-02,-4.2,-4.36
4.619e-02,-3.72,-3.64
4.621e-02,-4.44,-4.6
4.623e-02,-4.2,-3.8
4.625e-02,-3.88,-4.36
4.626e-02,-4.04,-3.72
4.628e-02,-4.2,-4.44
4.630e-02,-3.96,-3.72
4.632e-02,-3.88,-4.28
4.634e-02,-3.88,-3.32
4.636e-02,-4.2,-4.52
4.638e-02,-3.88,-3.48
4.640e-02,-4.12,-4.52
4.642e-02,-3.96,-3.32
4.644e-02,-3.96,-4.44
4.646e-02,-3.96,-3.56
4.648e-02,-4.12,-4.44
4.649e-02,-4.04,-3.64
4.651e-02,-4.2,-4.36
4.653e-02,-4.04,-3.64
4.655e-02,-4.52,-4.68
4.657e-02,-4.44,-3.88
4.659e-02,-3.96,-4.36
4.661e-02,-4.12,-3.72
4.663e-02,-3.8,-4.52
4.665e-02,-3.88,-3.64
4.667e-02,-4.04,-4.44
4.669e-02,-3.96,-3.72
4.671e-02,-3.88,-4.52
4.673e-02,-4.04,-3.56
4.674e-02,-4.04,-4.36
4.676e-02,-3.72,-3.56
4.678e-02,-3.96,-4.52
4.680e-02,-3.88,-3.56
4.682e-02,-3.8,-4.44
4.684e-02,-3.88,-3.64
4.686e-02,-4.12,-4.52
4.688e-02,-4.44,-3.96
4.690e-02,-4.12,-4.68
4.692e-02,-3.96,-3.8
4.694e-02,-4.2,-4.52
4.696e-02,-3.88,-3.64
4.697e-02,-3.64,-4.2
4.699e-02,-3.88,-3.48
4.701e-02,-4.04,-4.44
4.703e-02,-4.12,-3.64
4.705e-02,-4.12,-4.6
4.707e-02,-4.12,-3.64
4.709e-02,-3.88,-4.52
4.711e-02,-4.28,-3.72
4.713e-02,-4.12,-4.36
4.715e-02,-3.88,-3.48
4.717e-02,-4.28,-4.44
4.719e-02,-3.8,-3.64
4.721e-02,-4.44,-4.52
4.722e-02,-4.36,-3.8
4.724e-02,-3.88,-4.28
4.726e-02,-3.96,-3.72
4.728e-02,-3.72,-4.12
4.730e-02,-3.8,-3.56
4.732e-02,-3.48,-4.36
4.734e-02,-3.88,-3.32
4.736e-02,-3.88,-4.44
4.738e-02,-4.28,-3.72
4.740e-02,-4.12,-4.2
4.742e-02,-3.88,-3.56
4.744e-02,-4.04,-4.44
4.745e-02,-3.88,-3.72
4.747e-02,-3.88,-4.44
4.749e-02,-3.96,-3.56
4.751e-02,-4.04,-4.36
4.753e-02,-3.8,-3.64
4.755e-02,-4.28,-4.68
4.757e-02,-4.28,-3.96
4.759e-02,-4.04,-4.36
4.761e-02,-3.96,-3.64
4.763e-02,-3.8,-4.52
4.765e-02,-3.8,-3.64
4.767e-02,-3.96,-4.6
4.769e-02,-4.12,-3.8
4.770e-02,-4.36,-4.52
4.772e-02,-3.88,-3.64
4.774e-02,-4.28,-4.6
4.776e-02,-3.88,-3.72
4.778e-02,-4.2,-4.36
4.780e-02,-3.88,-3.4
4.782e-02,-4.12,-4.2
4.784e-02,-3.96,-3.64
4.786e-02,-3.64,-4.36
4.788e-02,-4.12,-3.48
4.790e-02,-4.04,-4.68
4.792e-02,-3.8,-3.56
4.793e-02,-4.04,-4.68
4.795e-02,-3.8,-3.64
4.797e-02,-4.04,-4.36
4.799e-02,-4.04,-3.72
4.801e-02,-3.8,-4.44
4.803e-02,-4.04,-3.24
4.805e-02,-4.04,-4.44
4.807e-02,-3.88,-3.8
4.809e-02,-4.12,-4.36
4.811e-02,-4.04,-3.72
4.813e-02,-3.8,-4.2
4.815e-02,-3.88,-3.4
4.817e-02,-3.64,-4.12
4.818e-02,-3.8,-3.56
4.820e-02,-3.88,-4.52
4.822e-02,-3.96,-3.72
4.824e-02,-4.28,-4.6
4.826e-02,-3.72,-3.56
4.828e-02,-4.12,-4.36
4.830e-02,-4.2,-3.64
4.832e-02,-3.56,-4.44
4.834e-02,-3.96,-3.48
4.836e-02,-3.72,-4.44
4.838e-02,-4.12,-3.48
4.840e-02,-3.88,-4.44
4.841e-02,-3.88,-3.72
4.843e-02,-3.88,-4.12
4.845e-02,-3.88,-3.64
4.847e-02,-3.8,-4.36
4.849e-02,-4.12,-3.64
4.851e-02,-3.8,-4.52
4.853e-02,-4.04,-3.72
4.855e-02,-4.28,-4.6
4.857e-02,-3.96,-3.8
4.859e-02,-3.72,-4.52
4.861e-02,-3.88,-3.56
4.863e-02,-3.88,-4.04
4.865e-02,-3.88,-3.64
4.866e-02,-3.72,-4.36
4.868e-02,-4.12,-3.56
4.870e-02,-4.2,-4.44
4.872e-02,-4.12,-3.8
4.874e-02,-3.96,-4.2
4.876e-02,-3.88,-3.72
4.878e-02,-3.56,-4.28
4.880e-02,-3.56,-3.32
4.882e-02,-3.72,-4.36
4.884e-02,-3.56,-3.4
4.886e-02,-4.12,-4.52
4.888e-02,-3.8,-3.56
4.889e-02,-4.04,-4.44
4.891e-02,-3.8,-3.64
4.893e-02,-3.8,-4.36
4.895e-02,-3.64,-3.56
4.897e-02,-3.96,-4.2
4.899e-02,-3.72,-3.48
4.901e-02,-4.52,-4.6
4.903e-02,-3.96,-3.8
4.905e-02,-4.04,-4.6
4.907e-02,-3.96,-3.72
4.909e-02,-4.36,-4.68
4.911e-02,-3.96,-3.48
4.913e-02,-3.56,-4.36
4.914e-02,-4.2,-3.4
4.916e-02,-3.64,-4.28
4.918e-02,-3.96,-3.4
4.920e-02,-3.96,-4.52
4.922e-02,-4.44,-3.64
4.924e-02,-3.64,-4.28
4.926e-02,-4.2,-3.32
4.928e-02,-4.04,-4.44
4.930e-02,-4.12,-3.56
4.932e-02,-3.8,-4.52
4.934e-02,-3.8,-3.56
4.936e-02,-3.88,-4.52
4.937e-02,-4.28,-3.72
4.939e-02,-4.04,-4.36
4.941e-02,-3.88,-3.8
4.943e-02,-4.04,-4.28
4.945e-02,-4.04,-3.56
4.947e-02,-3.96,-4.12
4.949e-02,-3.8,-3.64
4.951e-02,-3.4,-4.28
4.953e-02,-3.96,-3.32
4.955e-02,-4.36,-4.44
4.957e-02,-3.88,-3.8
4.959e-02,-4.28,-4.52
4.961e-02,-4.12,-3.88
4.962e-02,-3.72,-4.44
4.964e-02,-4.12,-3.56
4.966e-02,-4.04,-4.52
4.968e-02,-3.88,-3.64
4.970e-02,-4.2,-4.44
4.972e-02,-4.12,-3.64
4.974e-02,-3.72,-4.6
4.976e-02,-4.12,-3.64
4.978e-02,-3.96,-4.28
4.980e-02,-4.12,-3.48
4.982e-02,-3.8,-4.28
4.984e-02,-4.04,-3.56
4.985e-02,-4.28,-4.6
4.987e-02,-4.12,-3.88
4.989e-02,-3.88,-4.36
4.991e-02,-4.04,-3.56
4.993e-02,-4.2,-4.52
4.995e-02,-4.28,-3.56
4.997e-02,-3.88,-4.2
4.999e-02,-3.8,-3.64
5.001e-02,-4.12,-4.28
5.003e-02,-4.04,-3.48
5.005e-02,-3.8,-4.36
5.007e-02,-4.28,-3.64
5.009e-02,-4.12,-4.28
5.010e-02,-3.64,-3.48
5.012e-02,-3.8,-4.28
5.014e-02,-3.88,-3.72
5.016e-02,-3.8,-4.2
5.018e-02,-3.64,-3.56
5.020e-02,-3.88,-4.2
5.022e-02,-3.72,-3.48
5.024e-02,-4.2,-4.36
5.026e-02,-4.04,-3.56
5.028e-02,-3.8,-4.28
5.030e-02,-4.12,-3.64
5.032e-02,-3.8,-4.44
5.034e-02,-4.12,-3.32
5.035e-02,-3.96,-4.68
5.037e-02,-4.04,-3.8
5.039e-02,-4.04,-4.6
5.041e-02,-3.8,-3.72
5.043e-02,-3.8,-4.28
5.045e-02,-3.96,-3.4
5.047e-02,-3.96,-4.36
5.049e-02,-3.88,-3.64
5.051e-02,-4.12,-4.36
5.053e-02,-4.2,-3.8
5.055e-02,-3.88,-4.12
5.057e-02,-3.72,-3.56
5.058e-02,-3.96,-4.6
5.060e-02,-3.72,-3.48
5.062e-02,-3.72,-4.36
5.064e-02,-4.04,-3.64
5.066e-02,-4.12,-4.52
5.068e-02,-4.2,-3.72
5.070e-02,-4.36,-4.44
5.072e-02,-4.2,-3.72
5.074e-02,-4.2,-4.6
5.076e-02,-3.88,-3.72
5.078e-02,-4.12,-4.6
5.080e-02,-3.96,-3.88
5.082e-02,-3.96,-4.12
5.083e-02,-3.72,-3.56
5.085e-02,-4.04,-4.36
5.087e-02,-3.96,-3.64
5.089e-02,-4.12,-4.36
5.091e-02,-3.88,-3.72
5.093e-02,-3.88,-4.28
5.095e-02,-4.04,-3.8
5.097e-02,-4.12,-4.36
5.099e-02,-4.12,-3.64
5.101e-02,-4.2,-4.6
5.103e-02,-4.52,-3.8
5.105e-02,-4.2,-4.44
5.106e-02,-4.04,-3.64
5.108e-02,-3.88,-4.36
5.110e-02,-4.04,-3.16
5.112e-02,-3.96,-4.36
5.114e-02,-4.2,-3.72
5.116e-02,-4.2,-4.44
5.118e-02,-3.72,-3.64
5.120e-02,-3.88,-4.68
5.122e-02,-4.52,-3.48
5.124e-02,-4.12,-4.68
5.126e-02,-3.88,-3.72
5.128e-02,-3.8,-4.36
5.130e-02,-4.2,-3.48
5.131e-02,-3.64,-4.28
5.133e-02,-4.04,-3.48
5.135e-02,-4.2,-4.44
5.137e-02,-4.36,-3.88
5.139e-02,-3.88,-4.28
5.141e-02,-3.96,-3.64
5.143e-02,-3.56,-4.28
5.145e-02,-3.96,-3.48
5.147e-02,-3.88,-4.2
5.149e-02,-4.12,-3.56
5.151e-02,-3.88,-4.44
5.153e-02,-4.28,-3.56
5.154e-02,-3.8,-4.28
5.156e-02,-3.8,-3.64
5.158e-02,-3.88,-4.52
5.160e-02,-4.12,-3.32
5.162e-02,-3.72,-4.52
5.164e-02,-3.88,-3.48
5.166e-02,-4.44,-4.52
5.168e-02,-3.8,-3.56
5.170e-02,-3.72,-4.6
5.172e-02,-3.96,-3.64
5.174e-02,-3.8,-4.44
5.176e-02,-4.04,-3.72
5.178e-02,-4.2,-4.36
5.179e-02,-3.96,-3.4
5.181e-02,-4.12,-4.36
5.183e-02,-4.2,-3.64
5.185e-02,-4.28,-4.52
5.187e-02,-4.28,-3.96
5.189e-02,-4.2,-4.52
5.191e-02,-3.96,-3.8
5.193e-02,-3.72,-4.2
5.195e-02,-3.88,-3.56
5.197e-02,-4.28,-4.44
5.199e-02,-4.04,-3.8
5.201e-02,-4.12,-4.52
5.202e-02,-4.2,-3.8
5.204e-02,-4.04,-4.36
5.206e-02,-4.12,-3.56
5.208e-02,-4.36,-4.44
5.210e-02,-3.72,-3.4
5.212e-02,-3.88,-4.28
5.214e-02,-3.96,-3.64
5.216e-02,-3.96,-4.52
5.218e-02,-3.96,-3.64
5.220e-02,-4.12,-4.28
5.222e-02,-4.04,-3.8
5.224e-02,-3.88,-4.2
5.226e-02,-4.04,-3.4
5.227e-02,-3.64,-4.36
5.229e-02,-3.8,-3.56
5.231e-02,-4.04,-4.52
5.233e-02,-4.44,-3.8
5.235e-02,-3.8,-4.52
5.237e-02,-4.04,-3.64
5.239e-02,-4.36,-4.52
5.241e-02,-3.88,-3.72
5.243e-02,-3.72,-4.36
5.245e-02,-3.8,-3.56
5.247e-02,-4.36,-4.52
5.249e-02,-3.72,-3.64
5.250e-02,-3.88,-4.52
5.252e-02,-3.56,-3.4
5.254e-02,-3.88,-4.44
5.256e-02,-4.12,-3.56
5.258e-02,-3.8,-4.28
5.260e-02,-3.8,-3.64
5.262e-02,-4.04,-4.36
5.264e-02,-4.2,-3.72
5.266e-02,-3.88,-4.44
5.268e-02,-4.28,-3.8
5.270e-02,-3.88,-4.2
5.272e-02,-4.12,-3.56
5.274e-02,-3.88,-4.36
5.275e-02,-4.12,-3.4
5.277e-02,-4.12,-4.28
5.279e-02,-4.12,-3.4
5.281e-02,-3.96,-4.44
5.283e-02,-4.04,-3.8
5.285e-02,-3.8,-4.52
5.287e-02,-4.2,-3.72
5.289e-02,-3.8,-4.52
5.291e-02,-4.12,-3.56
5.293e-02,-3.4,-4.36
5.295e-02,-4.12,-3.32
5.297e-02,-3.96,-4.36
5.298e-02,-4.04,-3.48
5.300e-02,-4.12,-4.52
5.302e-02,-3.72,-3.64
5.304e-02,-3.8,-4.2
5.306e-02,-3.72,-3.48
5.308e-02,-4.04,-4.28
5.310e-02,-3.8,-3.56
5.312e-02,-3.8,-4.2
5.314e-02,-3.88,-3.64
5.316e-02,-4.2,-4.36
5.318e-02,-4.12,-3.96
5.320e-02,-4.36,-4.52
5.322e-02,-3.88,-3.64
5.323e-02,-4.12,-4.28
5.325e-02,-3.88,-3.64
5.327e-02,-4.12,-4.52
5.329e-02,-4.12,-3.4
5.331e-02,-4.28,-4.44
5.333e-02,-4.04,-3.64
5.335e-02,-4.52,-4.6
5.337e-02,-4.12,-3.56
5.339e-02,-3.96,-4.28
5.341e-02,-3.88,-3.48
5.343e-02,-3.72,-4.44
5.345e-02,-4.36,-3.64
5.346e-02,-3.96,-4.36
5.348e-02,-4.12,-3.56
5.350e-02,-3.96,-4.28
5.352e-02,-4.04,-3.8
5.354e-02,-3.72,-4.36
5.356e-02,-3.72,-3.64
5.358e-02,-3.88,-4.6
5.360e-02,-3.88,-3.32
5.362e-02,-4.28,-4.36
5.364e-02,-4.04,-3.64
5.366e-02,-3.88,-4.44
5.368e-02,-4.28,-3.72
5.370e-02,-4.12,-4.28
5.371e-02,-4.12,-3.64
5.373e-02,-4.12,-4.36
5.375e-02,-3.64,-3.32
5.377e-02,-3.96,-4.12
5.379e-02,-3.96,-3.64
5.381e-02,-4.04,-4.2
5.383e-02,-4.04,-3.8
5.385e-02,-4.12,-4.52
5.387e-02,-4.04,-3.72
5.389e-02,-4.12,-4.52
5.391e-02,-4.04,-3.88
5.393e-02,-4.04,-4.28
5.394e-02,-3.64,-3.24
5.396e-02,-4.04,-4.2
5.398e-02,-3.96,-3.88
5.400e-02,-3.96,-4.36
5.402e-02,-4.12,-3.8
5.404e-02,-4.2,-4.36
5.406e-02,-4.04,-3.8
5.408e-02,-3.96,-4.52
5.410e-02,-3.96,-3.72
5.412e-02,-3.88,-4.36
5.414e-02,-4.2,-3.56
5.416e-02,-4.04,-4.52
5.418e-02,-4.36,-3.8
5.419e-02,-4.04,-4.36
5.421e-02,-4.12,-3.72
5.423e-02,-3.8,-4.36
5.425e-02,-4.04,-3.48
5.427e-02,-4.04,-4.28
5.429e-02,-3.8,-3.56
5.431e-02,-3.64,-4.36
5.433e-02,-4.04,-3.48
5.435e-02,-4.12,-4.36
5.437e-02,-4.12,-3.24
5.439e-02,-4.2,-4.52
5.441e-02,-4.28,-3.32
5.442e-02,-4.04,-4.36
5.444e-02,-3.8,-3.48
5.446e-02,-4.28,-4.6
5.448e-02,-4.12,-3.56
5.450e-02,-4.2,-4.36
5.452e-02,-3.96,-3.72
5.454e-02,-4.12,-4.36
5.456e-02,-3.72,-3.4
5.458e-02,-4.12,-4.36
5.460e-02,-3.8,-3.72
5.462e-02,-3.88,-4.52
5.464e-02,-4.28,-3.64
5.466e-02,-4.28,-4.44
5.467e-02,-3.96,-3.72
5.469e-02,-3.88,-4.2
5.471e-02,-4.04,-3.72
5.473e-02,-4.04,-4.2
5.475e-02,-3.8,-3.32
5.477e-02,-3.8,-4.12
5.479e-02,-3.88,-3.72
5.481e-02,-3.88,-4.28
5.483e-02,-3.88,-3.56
5.485e-02,-4.52,-4.68
5.487e-02,-4.12,-3.72
5.489e-02,-4.36,-4.68
5.490e-02,-3.88,-3.56
5.492e-02,-3.96,-4.12
5.494e-02,-3.72,-3.56
5.496e-02,-3.8,-4.28
5.498e-02,-3.72,-3.56
5.500e-02,-3.96,-4.52
5.502e-02,-4.12,-3.8
5.504e-02,-3.96,-4.44
5.506e-02,-3.8,-3.64
5.508e-02,-3.64,-4.52
5.510e-02,-3.96,-3.32
5.512e-02,-4.12,-4.28
5.514e-02,-3.88,-3.56
5.515e-02,-4.12,-4.36
5.517e-02,-3.64,-3.48
5.519e-02,-4.2,-4.44
5.521e-02,-3.96,-3.64
5.523e-02,-3.8,-4.28
5.525e-02,-3.56,-3.32
5.527e-02,-3.96,-4.28
5.529e-02,-4.04,-3.24
5.531e-02,-3.88,-4.28
5.533e-02,-3.72,-3.64
5.535e-02,-4.04,-4.52
5.537e-02,-4.12,-3.8
5.538e-02,-3.88,-4.28
5.540e-02,-3.8,-3.56
5.542e-02,-3.72,-4.6
5.544e-02,-3.96,-3.64
5.546e-02,-4.2,-4.84
5.548e-02,-4.76,-3.88
5.550e-02,-4.2,-4.76
5.552e-02,-4.28,-3.8
5.554e-02,-3.96,-4.52
5.556e-02,-3.8,-3.72
5.558e-02,-4.2,-4.52
5.560e-02,-4.44,-3.8
5.562e-02,-4.04,-4.28
5.563e-02,-3.88,-3.72
5.565e-02,-3.8,-4.6
5.567e-02,-4.2,-3.64
5.569e-02,-4.28,-4.44
5.571e-02,-3.96,-3.72
5.573e-02,-3.96,-4.28
5.575e-02,-4.2,-3.64
5.577e-02,-3.72,-4.28
5.579e-02,-3.72,-3.48
5.581e-02,-4.04,-4.68
5.583e-02,-4.2,-3.72
5.585e-02,-3.88,-4.52
5.586e-02,-3.4,-3.32
5.588e-02,-3.72,-4.28
5.590e-02,-3.8,-3.4
5.592e-02,-3.72,-4.2
5.594e-02,-3.8,-3.32
5.596e-02,-3.72,-4.44
5.598e-02,-4.04,-3.64
5.600e-02,-3.96,-4.28
5.602e-02,-3.96,-3.64
5.604e-02,-4.04,-4.44
5.606e-02,-3.72,-3.4
5.608e-02,-3.96,-4.2
5.610e-02,-3.8,-3.48
5.611e-02,-3.96,-4.36
5.613e-02,-4.2,-3.8
5.615e-02,-4.04,-4.6
5.617e-02,-3.96,-3.8
5.619e-02,-4.04,-4.36
5.621e-02,-3.88,-3.56
5.623e-02,-3.8,-4.12
5.625e-02,-3.88,-3.48
5.627e-02,-3.88,-4.52
5.629e-02,-4.44,-3.64
5.631e-02,-4.28,-4.52
5.633e-02,-4.2,-3.88
5.635e-02,-4.12,-4.52
5.636e-02,-4.28,-3.72
5.638e-02,-4.04,-4.28
5.640e-02,-4.04,-3.64
5.642e-02,-3.72,-4.44
5.644e-02,-4.12,-3.56
5.646e-02,-4.12,-4.44
5.648e-02,-4.12,-3.64
5.650e-02,-4.44,-4.6
5.652e-02,-4.12,-3.8
5.654e-02,-4.2,-4.52
5.656e-02,-3.8,-3.56
5.658e-02,-3.56,-4.04
5.659e-02,-3.48,-3.4
5.661e-02,-3.8,-4.6
5.663e-02,-4.36,-3.4
5.665e-02,-4.28,-4.52
5.667e-02,-4.28,-3.88
5.669e-02,-4.2,-4.36
5.671e-02,-3.96,-3.56
5.673e-02,-3.8,-4.28
5.675e-02,-3.8,-3.56
5.677e-02,-4.2,-4.36
5.679e-02,-3.8,-3.64
5.681e-02,-4.12,-4.52
5.683e-02,-4.04,-3.96
5.684e-02,-4.12,-4.36
5.686e-02,-4.12,-3.8
5.688e-02,-3.96,-4.44
5.690e-02,-3.8,-3.64
5.692e-02,-3.96,-4.44
5.694e-02,-4.04,-3.64
5.696e-02,-4.2,-4.36
5.698e-02,-4.2,-3.72
5.700e-02,-4.12,-4.44
5.702e-02,-3.64,-3.56
5.704e-02,-4.04,-4.28
5.706e-02,-3.72,-3.32
5.707e-02,-3.72,-4.44
5.709e-02,-4.04,-3.48
5.711e-02,-3.88,-4.6
5.713e-02,-4.04,-3.64
5.715e-02,-3.96,-4.68
5.717e-02,-4.04,-3.72
5.719e-02,-4.2,-4.6
5.721e-02,-4.2,-3.88
5.723e-02,-3.72,-4.28
5.725e-02,-3.96,-3.48
5.727e-02,-3.8,-4.28
5.729e-02,-3.88,-3.56
5.731e-02,-3.88,-4.52
5.732e-02,-4.04,-3.8
5.734e-02,-3.8,-4.6
5.736e-02,-4.28,-3.48
5.738e-02,-3.96,-4.28
5.740e-02,-3.88,-3.56
5.742e-02,-3.88,-4.36
5.744e-02,-4.12,-3.56
5.746e-02,-3.64,-4.28
5.748e-02,-4.12,-3.4
5.750e-02,-4.2,-4.44
5.752e-02,-4.12,-3.72
5.754e-02,-4.04,-4.44
5.755e-02,-4.12,-3.72
5.757e-02,-4.04,-4.28
5.759e-02,-3.96,-3.72
5.761e-02,-4.36,-4.44
5.763e-02,-3.64,-3.48
5.765e-02,-4.2,-4.44
5.767e-02,-3.8,-3.72
5.769e-02,-3.96,-4.52
5.771e-02,-3.8,-3.64
5.773e-02,-3.8,-4.2
5.775e-02,-3.64,-3.48
5.777e-02,-3.88,-4.84
5.779e-02,-3.88,-3.56
5.780e-02,-3.96,-4.52
5.782e-02,-4.12,-3.56
5.784e-02,-3.96,-4.52
5.786e-02,-4.2,-3.72
5.788e-02,-3.88,-4.12
5.790e-02,-3.88,-3.48
5.792e-02,-4.2,-4.44
5.794e-02,-4.28,-3.8
5.796e-02,-3.88,-4.36
5.798e-02,-4.12,-3.72
5.800e-02,-4.36,-4.6
5.802e-02,-4.2,-3.8
5.803e-02,-4.12,-4.36
5.805e-02,-4.12,-3.72
5.807e-02,-4.36,-4.52
5.809e-02,-3.48,-3.4
5.811e-02,-3.88,-4.76
5.813e-02,-4.2,-3.64
5.815e-02,-3.96,-4.6
5.817e-02,-3.56,-3.48
5.819e-02,-3.96,-4.2
5.821e-02,-4.12,-3.48
5.823e-02,-3.8,-4.28
5.825e-02,-3.88,-3.4
5.827e-02,-3.72,-4.52
5.828e-02,-4.36,-3.56
5.830e-02,-4.52,-4.68
5.832e-02,-4.12,-3.8
5.834e-02,-4.2,-4.44
5.836e-02,-3.96,-3.64
5.838e-02,-4.52,-4.68
5.840e-02,-3.72,-3.64
5.842e-02,-4.2,-4.6
5.844e-02,-4.2,-3.72
5.846e-02,-3.96,-4.52
5.848e-02,-4.44,-3.8
5.850e-02,-4.2,-4.28
5.851e-02,-4.04,-3.64
5.853e-02,-4.04,-4.36
5.855e-02,-4.2,-3.48
5.857e-02,-3.8,-4.44
5.859e-02,-3.96,-3.72
5.861e-02,-4.04,-4.52
5.863e-02,-4.28,-3.72
5.865e-02,-3.96,-4.44
5.867e-02,-3.8,-3.64
5.869e-02,-4.04,-4.44
5.871e-02,-4.04,-3.48
5.873e-02,-4.12,-4.44
5.875e-02,-4.12,-3.56
5.876e-02,-4.2,-4.44
5.878e-02,-4.04,-3.56
5.880e-02,-4.2,-4.52
5.882e-02,-4.04,-3.56
5.884e-02,-3.96,-4.28
5.886e-02,-3.96,-3.4
5.888e-02,-4.2,-4.36
5.890e-02,-4.12,-3.64
5.892e-02,-4.2,-4.52
5.894e-02,-4.12,-3.96
5.896e-02,-3.8,-4.6
5.898e-02,-4.04,-3.72
5.899e-02,-4.28,-4.44
5.901e-02,-3.96,-3.56
5.903e-02,-3.72,-4.36
5.905e-02,-4.2,-3.48
5.907e-02,-4.12,-4.52
5.909e-02,-3.8,-3.72
5.911e-02,-3.88,-4.36
5.913e-02,-3.8,-3.72
5.915e-02,-3.8,-4.36
5.917e-02,-4.12,-3.64
5.919e-02,-4.12,-4.44
5.921e-02,-3.8,-3.32
5.923e-02,-4.12,-4.52
5.924e-02,-4.12,-3.72
5.926e-02,-4.28,-4.52
5.928e-02,-4.2,-3.88
5.930e-02,-4.28,-4.44
5.932e-02,-4.12,-3.64
5.934e-02,-3.56,-4.36
5.936e-02,-4.04,-3.48
5.938e-02,-4.12,-4.36
5.940e-02,-3.88,-3.56
5.942e-02,-4.04,-4.52
5.944e-02,-3.96,-3.64
5.946e-02,-4.28,-4.36
5.947e-02,-4.12,-3.88
5.949e-02,-3.96,-4.44
5.951e-02,-4.12,-3.72
5.953e-02,-4.12,-4.36
5.955e-02,-3.64,-3.48
5.957e-02,-3.96,-4.52
5.959e-02,-4.2,-3.72
5.961e-02,-4.28,-4.36
5.963e-02,-3.72,-3.56
5.965e-02,-4.28,-4.44
5.967e-02,-3.88,-3.72
5.969e-02,-3.8,-4.28
5.971e-02,-3.4,-3.32
5.972e-02,-4.12,-4.36
5.974e-02,-3.88,-3.64
5.976e-02,-4.12,-4.52
5.978e-02,-4.28,-3.8
5.980e-02,-4.12,-4.44
5.982e-02,-3.8,-3.48
5.984e-02,-3.88,-4.6
5.986e-02,-4.36,-3.72
5.988e-02,-3.8,-4.28
5.990e-02,-3.88,-3.64
5.992e-02,-4.28,-4.44
5.994e-02,-4.04,-3.8
5.995e-02,-4.04,-4.68
5.997e-02,-4.52,-3.96
5.999e-02,-4.28,-4.52
6.001e-02,-3.72,-3.48
6.003e-02,-4.04,-4.28
6.005e-02,-3.72,-3.56
6.007e-02,-3.88,-4.28
6.009e-02,-3.96,-3.64
6.011e-02,-4.12,-4.52
6.013e-02,-4.2,-3.64
6.015e-02,-4.04,-4.28
6.017e-02,-4.12,-3.64
6.019e-02,-4.2,-4.28
6.020e-02,-3.72,-3.48
6.022e-02,-4.36,-4.44
6.024e-02,-4.04,-3.72
6.026e-02,-4.12,-4.76
6.028e-02,-4.28,-3.72
6.030e-02,-4.04,-4.52
6.032e-02,-4.36,-3.64
6.034e-02,-4.12,-4.36
6.036e-02,-4.04,-3.64
6.038e-02,-4.12,-4.36
6.040e-02,-4.12,-3.88
6.042e-02,-3.72,-4.36
6.043e-02,-3.8,-3.56
6.045e-02,-3.88,-4.68
6.047e-02,-3.96,-3.48
6.049e-02,-4.12,-4.6
6.051e-02,-4.52,-3.56
6.053e-02,-3.64,-4.28
6.055e-02,-3.72,-3.4
6.057e-02,-3.8,-4.36
6.059e-02,-4.12,-3.72
6.061e-02,-4.04,-4.52
6.063e-02,-4.2,-3.88
6.065e-02,-4.04,-4.2
6.067e-02,-4.12,-3.8
6.068e-02,-4.12,-4.36
6.070e-02,-4.2,-3.48
6.072e-02,-4.36,-4.52
6.074e-02,-4.04,-3.8
6.076e-02,-4.44,-4.6
6.078e-02,-4.2,-3.96
6.080e-02,-4.12,-4.84
6.082e-02,-4.04,-3.88
6.084e-02,-3.8,-4.52
6.086e-02,-3.72,-3.48
6.088e-02,-4.04,-4.52
6.090e-02,-3.96,-3.64
6.091e-02,-3.88,-4.44
6.093e-02,-3.64,-3.56
6.095e-02,-3.72,-4.44
6.097e-02,-4.12,-3.56
6.099e-02,-4.52,-4.76
6.101e-02,-3.64,-3.56
6.103e-02,-3.8,-4.2
6.105e-02,-4.12,-3.56
6.107e-02,-4.2,-4.36
6.109e-02,-4.12,-3.72
6.111e-02,-4.12,-4.68
6.113e-02,-4.04,-3.88
6.115e-02,-4.44,-4.52
6.116e-02,-3.8,-3.48
6.118e-02,-3.24,-4.28
6.120e-02,-4.2,-3.08
6.122e-02,-3.72,-4.28
6.124e-02,-3.8,-3.32
6.126e-02,-4.04,-4.68
6.128e-02,-3.8,-3.64
6.130e-02,-4.04,-4.84
6.132e-02,-4.36,-3.8
6.134e-02,-3.88,-4.28
6.136e-02,-3.96,-3.48
6.138e-02,-4.2,-4.52
6.139e-02,-4.12,-3.72
6.141e-02,-4.04,-4.52
6.143e-02,-4.2,-3.88
6.145e-02,-4.12,-4.52
6.147e-02,-4.36,-3.88
6.149e-02,-3.96,-4.04
6.151e-02,-3.88,-3.64
6.153e-02,-3.96,-4.28
6.155e-02,-3.8,-3.72
6.157e-02,-4.04,-4.36
6.159e-02,-3.88,-3.48
6.161e-02,-4.36,-4.6
6.163e-02,-4.2,-3.88
6.164e-02,-4.12,-4.52
6.166e-02,-3.96,-3.64
6.168e-02,-4.04,-4.52
6.170e-02,-3.72,-3.56
6.172e-02,-4.12,-4.44
6.174e-02,-3.96,-3.8
6.176e-02,-4.28,-4.44
6.178e-02,-4.2,-3.72
6.180e-02,-4.28,-4.44
6.182e-02,-3.88,-3.72
6.184e-02,-3.96,-4.2
6.186e-02,-3.72,-3.64
6.187e-02,-4.12,-4.68
6.189e-02,-3.8,-3.56
6.191e-02,-3.8,-4.36
6.193e-02,-4.04,-3.72
6.195e-02,-4.28,-4.36
6.197e-02,-3.72,-3.56
6.199e-02,-3.8,-4.36
6.201e-02,-4.2,-3.32
6.203e-02,-3.96,-4.28
6.205e-02,-3.8,-3.48
6.207e-02,-3.96,-4.36
6.209e-02,-3.72,-3.4
6.211e-02,-3.96,-4.44
6.212e-02,-4.04,-3.8
6.214e-02,-3.88,-4.2
6.216e-02,-3.72,-3.56
6.218e-02,-3.8,-4.12
6.220e-02,-3.88,-3.56
6.222e-02,-3.96,-4.52
6.224e-02,-4.2,-3.64
6.226e-02,-4.12,-4.44
6.228e-02,-4.36,-3.96
6.230e-02,-3.4,-4.44
6.232e-02,-4.12,-3.32
6.234e-02,-4.28,-4.6
6.235e-02,-4.28,-3.72
6.237e-02,-3.96,-4.28
6.239e-02,-4.12,-3.88
6.241e-02,-3.8,-4.52
6.243e-02,-4.28,-3.64
6.245e-02,-4.12,-4.44
6.247e-02,-3.96,-3.88
6.249e-02,-4.12,-4.2
6.251e-02,-3.56,-3.48
6.253e-02,-3.96,-4.12
6.255e-02,-3.88,-3.64
6.257e-02,-3.96,-4.28
6.259e-02,-4.12,-3.72
6.260e-02,-3.88,-4.52
6.262e-02,-4.12,-3.72
6.264e-02,-3.88,-4.52
6.266e-02,-3.88,-3.72
6.268e-02,-4.2,-4.36
6.270e-02,-3.8,-3.56
6.272e-02,-3.8,-4.36
6.274e-02,-3.4,-3.24
6.276e-02,-3.96,-4.44
6.278e-02,-4.2,-3.8
6.280e-02,-4.2,-4.28
6.282e-02,-3.88,-3.64
6.284e-02,-4.28,-4.52
6.285e-02,-4.2,-3.64
6.287e-02,-3.96,-4.28
6.289e-02,-3.8,-3.72
6.291e-02,-4.04,-4.6
6.293e-02,-4.04,-3.88
6.295e-02,-4.36,-4.6
6.297e-02,-3.56,-3.48
6.299e-02,-4.2,-4.28
6.301e-02,-3.88,-3.72
6.303e-02,-3.96,-4.44
6.305e-02,-4.12,-3.64
6.307e-02,-3.72,-4.36
6.308e-02,-4.2,-3.56
6.310e-02,-4.12,-4.6
6.312e-02,-4.12,-3.88
6.314e-02,-3.88,-4.28
6.316e-02,-3.96,-3.48
6.318e-02,-4.04,-4.2
6.320e-02,-3.96,-3.72
6.322e-02,-3.88,-4.44
6.324e-02,-4.04,-3.56
6.326e-02,-3.88,-4.36
6.328e-02,-4.04,-3.8
6.330e-02,-4.36,-4.6
6.332e-02,-4.2,-3.88
6.333e-02,-4.04,-4.2
6.335e-02,-3.64,-3.56
6.337e-02,-4.04,-4.2
6.339e-02,-3.72,-3.64
6.341e-02,-4.12,-4.28
6.343e-02,-3.88,-3.64
6.345e-02,-4.04,-4.52
6.347e-02,-4.12,-3.72
6.349e-02,-3.88,-4.6
6.351e-02,-4.04,-3.56
6.353e-02,-3.96,-4.6
6.355e-02,-4.12,-3.64
6.356e-02,-4.28,-4.36
6.358e-02,-3.88,-3.72
6.360e-02,-4.12,-4.2
6.362e-02,-3.96,-3.72
6.364e-02,-4.12,-4.2
6.366e-02,-3.8,-3.56
6.368e-02,-3.8,-4.36
6.370e-02,-4.04,-3.64
6.372e-02,-4.04,-4.6
6.374e-02,-4.36,-3.88
6.376e-02,-4.04,-4.6
6.378e-02,-3.96,-3.64
6.380e-02,-4.12,-4.52
6.381e-02,-4.44,-3.72
6.383e-02,-3.72,-4.12
6.385e-02,-3.56,-3.24
6.387e-02,-3.72,-4.52
6.389e-02,-4.36,-3.56
6.391e-02,-4.28,-4.44
6.393e-02,-4.2,-3.88
6.395e-02,-3.96,-4.44
6.397e-02,-3.8,-3.64
6.399e-02,-3.72,-4.28
6.401e-02,-3.8,-3.56
6.403e-02,-3.72,-4.2
6.404e-02,-3.72,-3.56
6.406e-02,-4.04,-4.44
6.408e-02,-4.36,-3.64
6.410e-02,-4.2,-4.6
6.412e-02,-3.72,-3.64
6.414e-02,-4.12,-4.28
6.416e-02,-3.96,-3.8
6.418e-02,-4.04,-4.36
6.420e-02,-3.72,-3.64
6.422e-02,-3.8,-4.44
6.424e-02,-4.12,-3.64
6.426e-02,-4.52,-4.6
6.428e-02,-4.2,-3.8
6.429e-02,-4.36,-4.52
6.431e-02,-4.04,-3.8
6.433e-02,-3.4,-4.04
6.435e-02,-3.88,-3.24
6.437e-02,-4.36,-4.6
6.439e-02,-3.96,-3.72
6.441e-02,-4.28,-4.52
6.443e-02,-4.2,-4.04
6.445e-02,-4.04,-4.6
6.447e-02,-3.8,-3.64
6.449e-02,-4.2,-4.36
6.451e-02,-3.8,-3.48
6.452e-02,-4.12,-4.52
6.454e-02,-4.04,-3.56
6.456e-02,-3.88,-4.44
6.458e-02,-3.96,-3.56
6.460e-02,-3.96,-4.28
6.462e-02,-4.12,-3.72
6.464e-02,-4.2,-4.52
6.466e-02,-3.64,-3.48
6.468e-02,-4.04,-4.36
6.470e-02,-3.72,-3.64
6.472e-02,-3.88,-4.68
6.474e-02,-4.52,-3.64
6.476e-02,-3.8,-4.52
6.477e-02,-4.2,-3.56
6.479e-02,-4.12,-4.44
6.481e-02,-3.8,-3.48
6.483e-02,-4.12,-4.52
6.485e-02,-3.72,-3.56
6.487e-02,-4.04,-4.52
6.489e-02,-3.88,-3.56
6.491e-02,-4.36,-4.44
6.493e-02,-4.12,-3.96
6.495e-02,-4.6,-4.68
6.497e-02,-4.52,-3.56
6.499e-02,-3.96,-4.68
6.500e-02,-3.96,-3.56
6.502e-02,-4.2,-4.52
6.504e-02,-4.12,-3.72
6.506e-02,-4.44,-4.52
6.508e-02,-3.72,-3.64
6.510e-02,-4.36,-4.6
6.512e-02,-4.04,-3.96
6.514e-02,-4.36,-4.44
6.516e-02,-3.88,-3.72
6.518e-02,-3.96,-4.28
6.520e-02,-4.04,-3.72
6.522e-02,-4.12,-4.52
6.524e-02,-4.12,-3.88
6.525e-02,-3.96,-4.44
6.527e-02,-3.88,-3.64
6.529e-02,-3.96,-4.12
6.531e-02,-3.8,-3.48
6.533e-02,-4.04,-4.2
6.535e-02,-3.88,-3.56
6.537e-02,-4.04,-4.52
6.539e-02,-4.28,-3.8
6.541e-02,-4.36,-4.52
6.543e-02,-4.2,-3.88
6.545e-02,-3.88,-4.44
6.547e-02,-3.64,-3.32
6.548e-02,-4.04,-4.28
6.550e-02,-3.88,-3.64
6.552e-02,-4.04,-4.44
6.554e-02,-3.88,-3.56
6.556e-02,-4.04,-4.44
6.558e-02,-4.04,-3.8
6.560e-02,-4.28,-4.52
6.562e-02,-4.28,-3.8
6.564e-02,-3.64,-4.2
6.566e-02,-3.72,-3.48
6.568e-02,-4.12,-4.28
6.570e-02,-4.04,-3.72
6.572e-02,-4.28,-4.92
6.573e-02,-4.04,-3.88
6.575e-02,-4.36,-4.68
6.577e-02,-3.96,-3.8
6.579e-02,-3.88,-4.44
6.581e-02,-4.04,-3.8
6.583e-02,-4.2,-4.6
6.585e-02,-3.88,-3.48
6.587e-02,-4.2,-4.6
6.589e-02,-4.2,-3.88
6.591e-02,-4.04,-4.52
6.593e-02,-4.12,-3.8
6.595e-02,-4.04,-4.44
6.596e-02,-3.96,-3.64
6.598e-02,-4.36,-4.52
6.600e-02,-4.12,-3.48
6.602e-02,-4.04,-4.68
6.604e-02,-4.04,-3.72
6.606e-02,-4.04,-4.68
6.608e-02,-4.2,-3.96
6.610e-02,-3.96,-4.28
6.612e-02,-3.88,-3.8
6.614e-02,-4.2,-4.52
6.616e-02,-3.96,-3.48
6.618e-02,-4.36,-4.52
6.620e-02,-4.04,-3.88
6.621e-02,-3.8,-4.52
6.623e-02,-3.72,-3.64
6.625e-02,-4.2,-4.6
6.627e-02,-4.52,-3.56
6.629e-02,-4.44,-4.52
6.631e-02,-4.04,-3.88
6.633e-02,-4.04,-4.28
6.635e-02,-4.04,-3.64
6.637e-02,-3.96,-4.36
6.639e-02,-3.8,-3.64
6.641e-02,-4.36,-4.52
6.643e-02,-3.8,-3.56
6.644e-02,-3.64,-4.36
6.646e-02,-4.2,-3.48
6.648e-02,-3.96,-4.28
6.650e-02,-3.4,-3.24
6.652e-02,-4.12,-4.44
6.654e-02,-4.12,-3.88
6.656e-02,-4.12,-4.68
6.658e-02,-4.52,-3.72
6.660e-02,-4.28,-4.44
6.662e-02,-3.64,-3.4
6.664e-02,-4.28,-4.44
6.666e-02,-3.88,-3.56
6.668e-02,-3.88,-4.28
6.669e-02,-3.88,-3.64
6.671e-02,-4.2,-4.44
6.673e-02,-4.12,-3.56
6.675e-02,-4.04,-4.36
6.677e-02,-4.2,-3.56
6.679e-02,-3.88,-4.28
6.681e-02,-3.96,-3.72
6.683e-02,-3.64,-4.52
6.685e-02,-4.04,-3.4
6.687e-02,-3.8,-4.52
6.689e-02,-3.96,-3.64
6.691e-02,-3.96,-4.6
6.692e-02,-3.96,-3.72
6.694e-02,-4.2,-4.36
6.696e-02,-3.72,-3.64
6.698e-02,-3.96,-4.2
6.700e-02,-3.96,-3.72
6.702e-02,-3.56,-4.2
6.704e-02,-3.88,-3.48
6.706e-02,-4.12,-4.6
6.708e-02,-4.52,-3.88
6.710e-02,-4.36,-4.52
6.712e-02,-3.72,-3.4
6.714e-02,-3.8,-4.2
6.716e-02,-4.04,-3.32
6.717e-02,-3.96,-4.44
6.719e-02,-3.96,-3.64
6.721e-02,-4.44,-4.6
6.723e-02,-4.04,-3.48
6.725e-02,-4.04,-4.36
6.727e-02,-3.88,-3.72
6.729e-02,-4.12,-4.28
6.731e-02,-3.88,-3.48
6.733e-02,-3.96,-4.28
6.735e-02,-4.12,-3.64
6.737e-02,-4.2,-4.52
6.739e-02,-3.96,-3.88
6.740e-02,-3.64,-4.36
6.742e-02,-3.48,-3.32
6.744e-02,-4.2,-4.36
6.746e-02,-3.64,-3.48
6.748e-02,-3.96,-4.36
6.750e-02,-3.96,-3.48
6.752e-02,-4.52,-4.6
6.754e-02,-4.36,-3.64
6.756e-02,-4.04,-4.44
6.758e-02,-4.04,-3.64
6.760e-02,-3.96,-4.28
6.762e-02,-3.96,-3.64
6.764e-02,-3.96,-4.28
6.765e-02,-4.2,-3.4
6.767e-02,-4.12,-4.28
6.769e-02,-3.8,-3.64
6.771e-02,-4.04,-4.6
6.773e-02,-3.8,-3.64
6.775e-02,-3.72,-4.2
6.777e-02,-4.12,-3.56
6.779e-02,-4.44,-4.6
6.781e-02,-4.04,-3.88
6.783e-02,-4.2,-4.52
6.785e-02,-4.12,-3.72
6.787e-02,-3.96,-4.6
6.788e-02,-3.96,-3.72
6.790e-02,-4.12,-4.36
6.792e-02,-4.2,-3.56
6.794e-02,-4.12,-4.28
6.796e-02,-3.88,-3.8
6.798e-02,-4.2,-4.52
6.800e-02,-3.88,-3.72
6.802e-02,-3.96,-4.36
6.804e-02,-4.28,-3.8
6.806e-02,-3.8,-4.36
6.808e-02,-4.12,-3.72
6.810e-02,-4.04,-4.44
6.812e-02,-4.2,-3.48
6.813e-02,-4.12,-4.36
6.815e-02,-4.2,-3.4
6.817e-02,-4.2,-4.36
6.819e-02,-3.8,-3.56
6.821e-02,-3.64,-4.52
6.823e-02,-4.04,-3.48
6.825e-02,-4.36,-4.6
6.827e-02,-4.2,-3.64
6.829e-02,-4.28,-4.44
6.831e-02,-4.04,-3.8
6.833e-02,-3.96,-4.36
6.835e-02,-3.8,-3.64
6.836e-02,-4.2,-4.52
6.838e-02,-3.88,-3.72
6.840e-02,-3.96,-4.52
6.842e-02,-4.36,-3.8
6.844e-02,-4.52,-4.6
6.846e-02,-3.64,-3.24
6.848e-02,-4.12,-4.52
6.850e-02,-4.28,-3.8
6.852e-02,-3.96,-4.6
6.854e-02,-3.88,-3.56
6.856e-02,-4.36,-4.68
6.858e-02,-4.6,-3.8
6.860e-02,-3.8,-4.44
6.861e-02,-3.56,-3.4
6.863e-02,-3.96,-4.44
6.865e-02,-3.88,-3.4
6.867e-02,-4.28,-4.44
6.869e-02,-3.8,-3.64
6.871e-02,-4.2,-4.44
6.873e-02,-4.2,-3.72
6.875e-02,-4.04,-4.28
6.877e-02,-4.12,-3.72
6.879e-02,-4.28,-4.44
6.881e-02,-4.2,-3.88
6.883e-02,-3.88,-4.2
6.885e-02,-4.04,-3.64
6.886e-02,-4.52,-4.6
6.888e-02,-3.88,-3.8
6.890e-02,-4.2,-4.52
6.892e-02,-4.12,-3.56
6.894e-02,-3.8,-4.36
6.896e-02,-4.2,-3.72
6.898e-02,-4.2,-4.36
6.900e-02,-3.88,-3.4
6.902e-02,-3.88,-4.52
6.904e-02,-4.2,-3.64
6.906e-02,-4.12,-4.52
6.908e-02,-4.2,-3.64
6.909e-02,-3.8,-4.2
6.911e-02,-3.72,-3.56
6.913e-02,-4.04,-4.44
6.915e-02,-3.8,-3.72
6.917e-02,-3.96,-4.44
6.919e-02,-4.28,-3.72
6.921e-02,-3.88,-4.36
6.923e-02,-3.96,-3.64
6.925e-02,-4.12,-4.44
6.927e-02,-3.72,-3.56
6.929e-02,-3.8,-4.12
6.931e-02,-3.8,-3.56
6.933e-02,-3.8,-4.12
6.934e-02,-3.96,-3.48
6.936e-02,-4.2,-4.52
6.938e-02,-4.36,-3.8
6.940e-02,-4.36,-4.44
6.942e-02,-4.2,-3.88
6.944e-02,-3.88,-4.2
6.946e-02,-3.88,-3.64
6.948e-02,-3.8,-4.28
6.950e-02,-4.12,-3.64
6.952e-02,-3.96,-4.52
6.954e-02,-4.36,-3.56
6.956e-02,-4.52,-4.6
6.957e-02,-4.2,-3.88
6.959e-02,-4.04,-4.6
6.961e-02,-4.52,-3.72
6.963e-02,-3.96,-4.2
6.965e-02,-3.88,-3.48
6.967e-02,-4.12,-4.68
6.969e-02,-4.52,-3.72
6.971e-02,-3.88,-4.52
6.973e-02,-4.04,-3.72
6.975e-02,-3.96,-4.52
6.977e-02,-4.36,-3.72
6.979e-02,-3.88,-4.36
6.981e-02,-3.88,-3.72
6.982e-02,-3.96,-4.52
6.984e-02,-4.04,-3.72
6.986e-02,-4.28,-4.76
6.988e-02,-4.12,-3.8
6.990e-02,-4.36,-4.52
6.992e-02,-4.36,-3.48
6.994e-02,-4.12,-4.44
6.996e-02,-4.04,-3.64
6.998e-02,-4.28,-4.52
7.000e-02,-4.28,-3.72
7.002e-02,-3.8,-4.44
7.004e-02,-4.2,-3.64
7.005e-02,-4.04,-4.52
7.007e-02,-4.04,-3.56
7.009e-02,-3.88,-4.44
7.011e-02,-3.96,-3.72
7.013e-02,-4.04,-4.28
7.015e-02,-4.04,-3.8
7.017e-02,-3.96,-4.52
7.019e-02,-4.36,-3.8
7.021e-02,-4.2,-4.68
7.023e-02,-4.52,-3.8
7.025e-02,-3.96,-4.2
7.027e-02,-3.88,-3.64
7.029e-02,-3.88,-4.12
7.030e-02,-3.64,-3.48
7.032e-02,-3.64,-4.44
7.034e-02,-4.36,-3.56
7.036e-02,-3.96,-4.6
7.038e-02,-4.52,-3.72
7.040e-02,-3.88,-4.28
7.042e-02,-3.8,-3.56
7.044e-02,-3.72,-4.44
7.046e-02,-4.28,-3.56
7.048e-02,-3.8,-4.36
7.050e-02,-3.88,-3.56
7.052e-02,-3.96,-4.52
7.053e-02,-4.36,-3.8
7.055e-02,-3.96,-4.44
7.057e-02,-4.2,-3.64
7.059e-02,-3.64,-4.36
7.061e-02,-3.72,-3.4
7.063e-02,-3.56,-4.36
7.065e-02,-3.72,-3.48
7.067e-02,-3.64,-4.44
7.069e-02,-4.04,-3.48
7.071e-02,-4.44,-4.6
7.073e-02,-4.36,-3.8
7.075e-02,-3.8,-4.28
7.077e-02,-4.12,-3.64
7.078e-02,-3.8,-4.04
7.080e-02,-3.88,-3.56
7.082e-02,-3.88,-4.44
7.084e-02,-4.2,-3.72
7.086e-02,-4.12,-4.44
7.088e-02,-4.04,-3.8
7.090e-02,-4.04,-4.44
7.092e-02,-3.64,-3.48
7.094e-02,-4.12,-4.28
7.096e-02,-3.72,-3.64
7.098e-02,-3.56,-4.44
7.100e-02,-4.2,-3.48
7.101e-02,-4.36,-4.6
7.103e-02,-4.28,-3.8
7.105e-02,-3.88,-4.52
7.107e-02,-3.96,-3.56
7.109e-02,-3.96,-4.2
7.111e-02,-3.88,-3.56
7.113e-02,-3.56,-4.28
7.115e-02,-3.96,-3.48
7.117e-02,-4.28,-4.52
7.119e-02,-4.04,-3.88
7.121e-02,-4.04,-4.52
7.123e-02,-3.88,-3.72
7.125e-02,-4.12,-4.44
7.126e-02,-4.04,-3.64
7.128e-02,-3.72,-4.52
7.130e-02,-4.12,-3.48
7.132e-02,-4.04,-4.28
7.134e-02,-4.04,-3.72
7.136e-02,-4.04,-4.28
7.138e-02,-3.8,-3.72
7.140e-02,-4.04,-4.28
7.142e-02,-3.8,-3.4
7.144e-02,-3.96,-4.28
7.146e-02,-3.88,-3.8
7.148e-02,-3.88,-4.6
7.149e-02,-4.28,-3.72
7.151e-02,-4.12,-4.6
7.153e-02,-3.88,-3.8
7.155e-02,-4.36,-4.44
7.157e-02,-3.8,-3.64
7.159e-02,-4.04,-4.2
7.161e-02,-4.04,-3.72
7.163e-02,-4.2,-4.44
7.165e-02,-3.72,-3.56
7.167e-02,-3.96,-4.52
7.169e-02,-4.2,-3.8
7.171e-02,-3.64,-4.44
7.173e-02,-3.96,-3.4
7.174e-02,-3.96,-4.2
7.176e-02,-4.04,-3.72
7.178e-02,-3.88,-4.28
7.180e-02,-3.88,-3.72
7.182e-02,-3.96,-4.52
7.184e-02,-4.36,-3.72
7.186e-02,-4.28,-4.44
7.188e-02,-4.12,-3.56
7.190e-02,-3.96,-4.28
7.192e-02,-4.04,-3.48
7.194e-02,-4.04,-4.36
7.196e-02,-3.88,-3.64
7.197e-02,-4.2,-4.76
7.199e-02,-4.28,-3.72
7.201e-02,-3.96,-4.52
7.203e-02,-3.48,-3.4
7.205e-02,-4.12,-4.52
7.207e-02,-3.8,-3.56
7.209e-02,-3.8,-4.2
7.211e-02,-4.04,-3.48
7.213e-02,-3.56,-4.28
7.215e-02,-4.04,-3.48
7.217e-02,-4.28,-4.36
7.219e-02,-4.28,-3.64
7.221e-02,-3.88,-4.52
7.222e-02,-4.28,-3.8
7.224e-02,-4.36,-4.52
7.226e-02,-4.04,-3.64
7.228e-02,-4.04,-4.44
7.230e-02,-3.64,-3.48
7.232e-02,-3.96,-4.68
7.234e-02,-4.2,-3.72
7.236e-02,-4.2,-4.44
7.238e-02,-4.12,-3.72
7.240e-02,-3.96,-4.36
7.242e-02,-3.56,-3.48
7.244e-02,-3.8,-4.2
7.245e-02,-3.88,-3.48
7.247e-02,-3.64,-4.52
7.249e-02,-4.44,-3.56
7.251e-02,-3.64,-4.36
7.253e-02,-4.04,-3.48
7.255e-02,-3.96,-4.36
7.257e-02,-4.28,-3.64
7.259e-02,-4.2,-4.36
7.261e-02,-3.64,-3.48
7.263e-02,-3.8,-4.36
7.265e-02,-3.96,-3.48
7.267e-02,-4.04,-4.52
7.269e-02,-3.8,-3.72
7.270e-02,-3.88,-4.36
7.272e-02,-4.04,-3.64
7.274e-02,-3.88,-4.28
7.276e-02,-3.72,-3.48
7.278e-02,-3.96,-4.44
7.280e-02,-4.28,-3.56
7.282e-02,-3.96,-4.68
7.284e-02,-4.12,-3.8
7.286e-02,-4.04,-4.44
7.288e-02,-4.28,-3.64
7.290e-02,-3.72,-4.44
7.292e-02,-3.88,-3.4
7.293e-02,-3.96,-4.52
7.295e-02,-4.28,-3.72
7.297e-02,-4.12,-4.28
7.299e-02,-3.8,-3.64
7.301e-02,-4.44,-4.84
7.303e-02,-3.96,-3.72
7.305e-02,-4.12,-4.36
7.307e-02,-4.12,-3.4
7.309e-02,-4.04,-4.36
7.311e-02,-4.2,-3.88
7.313e-02,-4.12,-4.44
7.315e-02,-4.28,-3.8
7.317e-02,-3.8,-4.52
7.318e-02,-4.36,-3.56
7.320e-02,-4.52,-4.68
7.322e-02,-4.12,-3.64
7.324e-02,-3.96,-4.12
7.326e-02,-3.88,-3.48
7.328e-02,-4.04,-4.36
7.330e-02,-3.96,-3.8
7.332e-02,-3.96,-4.36
7.334e-02,-3.8,-3.64
7.336e-02,-4.44,-4.68
7.338e-02,-4.28,-3.88
7.340e-02,-3.88,-4.2
7.341e-02,-3.64,-3.48
7.343e-02,-4.2,-4.44
7.345e-02,-3.48,-3.24
7.347e-02,-3.88,-4.44
7.349e-02,-3.8,-3.64
7.351e-02,-4.12,-4.52
7.353e-02,-3.96,-3.8
7.355e-02,-4.04,-4.44
7.357e-02,-3.64,-3.48
7.359e-02,-4.2,-4.44
7.361e-02,-3.88,-3.64
7.363e-02,-4.04,-4.44
7.365e-02,-4.04,-3.88
7.366e-02,-4.28,-4.52
7.368e-02,-4.12,-3.88
7.370e-02,-4.36,-4.6
7.372e-02,-3.72,-3.48
7.374e-02,-3.72,-4.28
7.376e-02,-4.04,-3.64
7.378e-02,-3.72,-4.52
7.380e-02,-4.44,-3.56
7.382e-02,-3.96,-4.52
7.384e-02,-4.2,-3.8
7.386e-02,-4.04,-4.36
7.388e-02,-4.12,-3.64
7.389e-02,-4.2,-4.36
7.391e-02,-3.88,-3.64
7.393e-02,-4.2,-4.36
7.395e-02,-4.28,-3.8
7.397e-02,-3.88,-4.68
7.399e-02,-4.12,-3.8
7.401e-02,-3.8,-4.76
7.403e-02,-4.44,-3.56
7.405e-02,-4.04,-4.68
7.407e-02,-4.12,-3.8
7.409e-02,-4.28,-4.44
7.411e-02,-3.64,-3.48
7.413e-02,-3.96,-4.28
7.414e-02,-4.04,-3.8
7.416e-02,-4.36,-4.52
7.418e-02,-3.72,-3.64
7.420e-02,-4.44,-4.6
7.422e-02,-4.12,-3.64
7.424e-02,-4.04,-4.68
7.426e-02,-3.88,-3.72
7.428e-02,-3.56,-4.36
7.430e-02,-4.04,-3.4
7.432e-02,-4.04,-4.44
7.434e-02,-4.36,-3.8
7.436e-02,-4.28,-4.6
7.437e-02,-4.12,-3.48
7.439e-02,-4.12,-4.68
7.441e-02,-3.8,-3.56
7.443e-02,-4.04,-4.28
7.445e-02,-3.88,-3.56
7.447e-02,-4.04,-4.68
7.449e-02,-4.12,-3.96
7.451e-02,-4.36,-4.68
7.453e-02,-4.52,-3.72
7.455e-02,-4.04,-4.2
7.457e-02,-3.72,-3.48
7.459e-02,-3.8,-4.44
7.461e-02,-3.8,-3.48
7.462e-02,-4.28,-4.52
7.464e-02,-4.28,-3.64
7.466e-02,-3.96,-4.36
7.468e-02,-3.8,-3.64
7.470e-02,-3.8,-4.28
7.472e-02,-4.2,-3.72
7.474e-02,-4.12,-4.44
7.476e-02,-3.96,-3.88
7.478e-02,-4.04,-4.44
7.480e-02,-4.36,-3.8
7.482e-02,-3.72,-4.6
7.484e-02,-4.28,-3.56
7.485e-02,-3.96,-4.44
7.487e-02,-4.28,-3.88
7.489e-02,-4.12,-4.28
7.491e-02,-3.96,-3.72
7.493e-02,-3.96,-4.12
7.495e-02,-3.8,-3.56
7.497e-02,-3.72,-4.52
7.499e-02,-4.44,-3.56
7.501e-02,-4.04,-4.68
7.503e-02,-4.52,-3.72
7.505e-02,-3.88,-4.04
7.507e-02,-3.88,-3.56
7.509e-02,-4.04,-4.44
7.510e-02,-3.8,-3.64
7.512e-02,-3.88,-4.36
7.514e-02,-4.28,-3.72
7.516e-02,-3.88,-4.52
7.518e-02,-4.12,-3.56
7.520e-02,-3.96,-4.6
7.522e-02,-3.96,-3.8
7.524e-02,-3.88,-4.36
7.526e-02,-3.64,-3.56
7.528e-02,-3.96,-4.6
7.530e-02,-4.36,-3.56
7.532e-02,-3.96,-4.52
7.534e-02,-4.28,-3.64
7.535e-02,-4.2,-4.44
7.537e-02,-3.96,-3.64
7.539e-02,-3.64,-4.28
7.541e-02,-3.96,-3.56
7.543e-02,-3.72,-4.36
7.545e-02,-4.2,-3.48
7.547e-02,-3.8,-4.76
7.549e-02,-4.6,-3.64
7.551e-02,-4.12,-4.76
7.553e-02,-4.6,-3.96
7.555e-02,-4.28,-4.52
7.557e-02,-3.88,-3.72
7.558e-02,-3.88,-4.28
7.560e-02,-3.72,-3.32
7.562e-02,-3.88,-4.44
7.564e-02,-4.36,-3.64
7.566e-02,-4.28,-4.52
7.568e-02,-4.12,-3.8
7.570e-02,-3.88,-4.36
7.572e-02,-4.04,-3.72
7.574e-02,-3.64,-4.36
7.576e-02,-4.12,-3.56
7.578e-02,-4.04,-4.2
7.580e-02,-3.8,-3.64
7.582e-02,-4.12,-4.68
7.583e-02,-4.44,-3.72
7.585e-02,-4.28,-4.36
7.587e-02,-3.88,-3.8
7.589e-02,-3.96,-4.44
7.591e-02,-4.2,-3.64
7.593e-02,-4.12,-4.6
7.595e-02,-4.36,-3.88
7.597e-02,-4.52,-4.6
7.599e-02,-4.04,-3.8
7.601e-02,-4.04,-4.52
7.603e-02,-3.88,-3.48
7.605e-02,-4.12,-4.2
7.606e-02,-3.8,-3.72
7.608e-02,-4.04,-4.28
7.610e-02,-3.8,-3.56
7.612e-02,-3.88,-4.44
7.614e-02,-4.04,-3.64
7.616e-02,-4.12,-4.52
7.618e-02,-4.12,-3.88
7.620e-02,-3.96,-4.28
7.622e-02,-3.8,-3.56
7.624e-02,-3.72,-4.36
7.626e-02,-3.8,-3.4
7.628e-02,-4.12,-4.68
7.630e-02,-3.8,-3.64
7.631e-02,-3.88,-4.68
7.633e-02,-4.28,-3.72
7.635e-02,-4.04,-4.28
7.637e-02,-3.96,-3.4
7.639e-02,-4.12,-4.44
7.641e-02,-4.2,-3.88
7.643e-02,-4.04,-4.44
7.645e-02,-4.2,-3.56
7.647e-02,-4.44,-4.52
7.649e-02,-4.28,-3.88
7.651e-02,-4.36,-4.52
7.653e-02,-3.96,-3.56
7.654e-02,-4.12,-4.28
7.656e-02,-3.96,-3.56
7.658e-02,-4.12,-4.28
7.660e-02,-4.12,-3.8
7.662e-02,-3.72,-4.36
7.664e-02,-3.96,-3.64
7.666e-02,-3.88,-4.28
7.668e-02,-3.96,-3.72
7.670e-02,-4.12,-4.28
7.672e-02,-4.2,-3.72
7.674e-02,-3.96,-4.2
7.676e-02,-3.8,-3.64
7.678e-02,-3.96,-4.44
7.679e-02,-3.96,-3.72
7.681e-02,-4.12,-4.44
7.683e-02,-4.04,-3.8
7.685e-02,-3.88,-4.44
7.687e-02,-4.28,-3.4
7.689e-02,-4.28,-4.68
7.691e-02,-3.8,-3.56
7.693e-02,-4.04,-4.36
7.695e-02,-3.88,-3.72
7.697e-02,-4.2,-4.44
7.699e-02,-3.96,-3.72
7.701e-02,-4.36,-4.6
7.702e-02,-4.2,-3.56
7.704e-02,-4.04,-4.44
7.706e-02,-4.28,-3.8
7.708e-02,-4.04,-4.36
7.710e-02,-3.8,-3.72
7.712e-02,-4.04,-4.44
7.714e-02,-4.12,-3.96
7.716e-02,-4.2,-4.52
7.718e-02,-3.96,-3.64
7.720e-02,-4.12,-4.36
7.722e-02,-4.12,-3.56
7.724e-02,-3.88,-4.36
7.726e-02,-3.88,-3.64
7.727e-02,-3.96,-4.52
7.729e-02,-4.2,-3.72
7.731e-02,-4.12,-4.36
7.733e-02,-4.12,-3.88
7.735e-02,-3.8,-4.28
7.737e-02,-3.96,-3.64
7.739e-02,-3.72,-4.44
7.741e-02,-3.48,-3.4
7.743e-02,-3.8,-4.52
7.745e-02,-3.72,-3.64
7.747e-02,-4.36,-4.52
7.749e-02,-4.12,-3.88
7.750e-02,-3.96,-4.28
7.752e-02,-3.8,-3.64
7.754e-02,-3.64,-4.28
7.756e-02,-4.2,-3.48
7.758e-02,-3.72,-4.52
7.760e-02,-4.28,-3.64
7.762e-02,-4.2,-4.52
7.764e-02,-4.12,-3.88
7.766e-02,-4.04,-4.6
7.768e-02,-4.04,-3.8
7.770e-02,-3.96,-4.28
7.772e-02,-4.2,-3.48
7.774e-02,-4.12,-4.36
7.775e-02,-3.8,-3.56
7.777e-02,-3.8,-4.6
7.779e-02,-4.2,-3.64
7.781e-02,-4.2,-4.52
7.783e-02,-4.04,-3.8
7.785e-02,-4.12,-4.36
7.787e-02,-3.88,-3.72
7.789e-02,-3.8,-4.36
7.791e-02,-3.88,-3.48
7.793e-02,-4.6,-4.76
7.795e-02,-4.04,-3.72
7.797e-02,-4.04,-4.6
7.798e-02,-4.52,-3.72
7.800e-02,-4.28,-4.52
7.802e-02,-4.36,-3.8
7.804e-02,-4.12,-4.36
7.806e-02,-3.8,-3.72
7.808e-02,-3.96,-4.6
7.810e-02,-4.2,-3.72
7.812e-02,-4.52,-4.6
7.814e-02,-4.52,-4.2
7.816e-02,-4.28,-4.36
7.818e-02,-3.8,-3.72
7.820e-02,-3.96,-4.36
7.822e-02,-4.2,-3.88
7.823e-02,-3.96,-4.12
7.825e-02,-3.96,-3.56
7.827e-02,-3.8,-4.52
7.829e-02,-4.28,-3.64
7.831e-02,-4.04,-4.52
7.833e-02,-3.96,-3.8
7.835e-02,-3.8,-4.36
7.837e-02,-4.12,-3.4
7.839e-02,-3.96,-4.12
7.841e-02,-3.88,-3.56
7.843e-02,-3.96,-4.52
7.845e-02,-4.04,-3.8
7.846e-02,-4.04,-4.36
7.848e-02,-3.64,-3.48
7.850e-02,-4.28,-4.68
7.852e-02,-3.96,-3.72
7.854e-02,-4.12,-4.52
7.856e-02,-3.96,-3.8
7.858e-02,-3.96,-4.52
7.860e-02,-3.96,-3.56
7.862e-02,-4.36,-4.6
7.864e-02,-4.36,-3.64
7.866e-02,-4.2,-4.44
7.868e-02,-3.64,-3.48
7.870e-02,-4.2,-4.36
7.871e-02,-3.96,-3.48
7.873e-02,-3.72,-4.2
7.875e-02,-4.12,-3.56
7.877e-02,-4.12,-4.44
7.879e-02,-3.96,-3.8
7.881e-02,-4.28,-4.68
7.883e-02,-4.36,-4.12
7.885e-02,-4.2,-4.44
7.887e-02,-3.96,-3.64
7.889e-02,-3.8,-4.2
7.891e-02,-3.96,-3.64
7.893e-02,-4.52,-4.76
7.894e-02,-4.6,-3.8
7.896e-02,-4.12,-4.6
7.898e-02,-4.04,-3.72
7.900e-02,-4.44,-4.76
7.902e-02,-4.6,-3.88
7.904e-02,-3.8,-4.2
7.906e-02,-3.8,-3.48
7.908e-02,-4.2,-4.36
7.910e-02,-4.2,-3.72
7.912e-02,-4.28,-4.44
7.914e-02,-4.2,-3.8
7.916e-02,-4.36,-4.52
7.918e-02,-4.12,-3.8
7.919e-02,-3.96,-4.28
7.921e-02,-3.8,-3.56
7.923e-02,-4.04,-4.6
7.925e-02,-4.28,-3.64
7.927e-02,-4.28,-4.44
7.929e-02,-3.48,-3.4
7.931e-02,-4.12,-4.44
7.933e-02,-3.96,-3.88
7.935e-02,-4.2,-4.36
7.937e-02,-4.12,-3.48
7.939e-02,-3.96,-4.2
7.941e-02,-3.96,-3.56
7.942e-02,-3.96,-4.44
7.944e-02,-4.04,-3.72
7.946e-02,-4.2,-4.44
7.948e-02,-3.96,-3.8
7.950e-02,-4.04,-4.44
7.952e-02,-4.12,-3.48
7.954e-02,-3.96,-4.28
7.956e-02,-4.04,-3.48
7.958e-02,-3.96,-4.52
7.960e-02,-4.12,-3.72
7.962e-02,-4.36,-4.52
7.964e-02,-3.88,-3.48
7.966e-02,-4.52,-4.6
7.967e-02,-3.96,-3.72
7.969e-02,-3.8,-4.2
7.971e-02,-3.96,-3.64
7.973e-02,-4.2,-4.68
7.975e-02,-4.28,-3.72
7.977e-02,-4.36,-4.6
7.979e-02,-4.04,-3.96
7.981e-02,-4.6,-4.76
7.983e-02,-4.2,-3.88
7.985e-02,-4.2,-4.36
7.987e-02,-3.56,-3.32
7.989e-02,-4.2,-4.36
7.990e-02,-3.8,-3.4
7.992e-02,-4.28,-4.44
7.994e-02,-3.96,-3.8
7.996e-02,-4.28,-4.52
7.998e-02,-3.72,-3.64
8.000e-02,-4.52,-4.76
8.002e-02,-4.04,-3.72
8.004e-02,-4.04,-4.28
8.006e-02,-3.72,-3.56
8.008e-02,-3.88,-4.52
8.010e-02,-3.8,-3.56
8.012e-02,-4.12,-4.68
8.014e-02,-4.2,-3.88
8.015e-02,-4.44,-4.52
8.017e-02,-3.8,-3.56
8.019e-02,-3.64,-4.52
8.021e-02,-4.28,-3.4
8.023e-02,-4.36,-4.52
8.025e-02,-4.12,-3.88
8.027e-02,-3.96,-4.52
8.029e-02,-4.12,-3.8
8.031e-02,-4.12,-4.52
8.033e-02,-4.28,-3.96
8.035e-02,-3.88,-4.52
8.037e-02,-3.88,-3.72
8.038e-02,-3.8,-4.52
8.040e-02,-3.8,-3.72
8.042e-02,-3.64,-4.44
8.044e-02,-4.2,-3.48
8.046e-02,-4.04,-4.36
8.048e-02,-3.96,-3.56
8.050e-02,-3.64,-4.36
8.052e-02,-4.28,-3.48
8.054e-02,-3.8,-4.52
8.056e-02,-3.72,-3.56
8.058e-02,-3.96,-4.44
8.060e-02,-3.88,-3.72
8.062e-02,-3.96,-4.28
8.063e-02,-3.96,-3.8
8.065e-02,-3.88,-4.28
8.067e-02,-3.8,-3.64
8.069e-02,-3.96,-4.52
8.071e-02,-4.12,-3.48
8.073e-02,-3.96,-4.6
8.075e-02,-4.12,-3.64
8.077e-02,-4.12,-4.68
8.079e-02,-4.28,-3.96
8.081e-02,-4.36,-4.52
8.083e-02,-4.04,-3.56
8.085e-02,-3.8,-4.28
8.086e-02,-3.64,-3.56
8.088e-02,-3.72,-4.36
8.090e-02,-4.04,-3.56
8.092e-02,-4.28,-4.68
8.094e-02,-4.04,-3.8
8.096e-02,-4.6,-4.76
8.098e-02,-4.2,-3.8
8.100e-02,-3.72,-4.44
8.102e-02,-4.04,-3.64
8.104e-02,-4.12,-4.52
8.106e-02,-3.88,-3.8
8.108e-02,-4.2,-4.28
8.110e-02,-4.12,-3.72
8.111e-02,-4.36,-4.6
8.113e-02,-4.36,-3.8
8.115e-02,-3.96,-4.36
8.117e-02,-4.04,-3.56
8.119e-02,-3.88,-4.28
8.121e-02,-3.88,-3.48
8.123e-02,-4.36,-4.52
8.125e-02,-3.96,-3.72
8.127e-02,-4.28,-4.68
8.129e-02,-4.12,-3.72
8.131e-02,-3.96,-4.44
8.133e-02,-4.04,-3.64
8.135e-02,-3.96,-4.2
8.136e-02,-3.88,-3.56
8.138e-02,-4.2,-4.44
8.140e-02,-4.2,-3.8
8.142e-02,-4.12,-4.36
8.144e-02,-4.28,-3.64
8.146e-02,-3.88,-4.2
8.148e-02,-3.96,-3.4
8.150e-02,-3.8,-4.2
8.152e-02,-3.88,-3.56
8.154e-02,-4.04,-4.52
8.156e-02,-4.12,-3.72
8.158e-02,-4.12,-4.52
8.159e-02,-4.28,-3.64
8.161e-02,-4.12,-4.76
8.163e-02,-4.52,-3.72
8.165e-02,-4.12,-4.28
8.167e-02,-4.04,-3.8
8.169e-02,-4.12,-4.36
8.171e-02,-4.12,-3.8
8.173e-02,-4.12,-4.36
8.175e-02,-4.2,-3.72
8.177e-02,-4.2,-4.68
8.179e-02,-4.52,-3.8
8.181e-02,-4.12,-4.44
8.183e-02,-4.04,-3.88
8.184e-02,-3.88,-4.2
8.186e-02,-3.72,-3.64
8.188e-02,-4.12,-4.6
8.190e-02,-3.8,-3.64
8.192e-02,-3.88,-4.52
8.194e-02,-4.28,-3.8
8.196e-02,-3.88,-4.44
8.198e-02,-4.04,-3.64
8.200e-02,-3.88,-4.36
8.202e-02,-3.96,-3.56
8.204e-02,-3.88,-4.28
8.206e-02,-4.2,-3.72
8.207e-02,-4.04,-4.44
8.209e-02,-3.64,-3.56
8.211e-02,-4.28,-4.52
8.213e-02,-4.2,-3.96
8.215e-02,-4.04,-4.52
8.217e-02,-4.36,-3.64
8.219e-02,-4.28,-4.6
8.221e-02,-3.8,-3.64
8.223e-02,-4.2,-4.6
8.225e-02,-4.44,-3.8
8.227e-02,-4.04,-4.52
8.229e-02,-4.2,-3.8
8.231e-02,-4.44,-4.6
8.232e-02,-3.8,-3.48
8.234e-02,-3.96,-4.28
8.236e-02,-4.2,-3.64
8.238e-02,-3.72,-4.52
8.240e-02,-3.88,-3.48
8.242e-02,-4.2,-4.28
8.244e-02,-4.04,-3.64
8.246e-02,-4.28,-4.52
8.248e-02,-3.8,-3.72
8.250e-02,-4.44,-4.68
8.252e-02,-3.72,-3.4
8.254e-02,-3.88,-4.36
8.255e-02,-4.2,-3.48
8.257e-02,-4.12,-4.52
8.259e-02,-4.36,-3.96
8.261e-02,-4.36,-4.6
8.263e-02,-4.2,-3.96
8.265e-02,-4.52,-4.68
8.267e-02,-4.04,-3.72
8.269e-02,-3.72,-4.28
8.271e-02,-3.72,-3.56
8.273e-02,-4.44,-4.52
8.275e-02,-4.04,-3.88
8.277e-02,-4.28,-4.6
8.279e-02,-3.96,-3.8
8.280e-02,-4.6,-4.76
8.282e-02,-4.2,-3.8
8.284e-02,-3.96,-4.36
8.286e-02,-4.12,-3.48
8.288e-02,-3.88,-4.52
8.290e-02,-4.12,-3.8
8.292e-02,-4.04,-4.52
8.294e-02,-4.44,-3.8
8.296e-02,-4.12,-4.68
8.298e-02,-4.04,-3.88
8.300e-02,-3.96,-4.52
8.302e-02,-3.88,-3.48
8.303e-02,-4.04,-4.6
8.305e-02,-4.28,-3.64
8.307e-02,-4.04,-4.68
8.309e-02,-4.04,-3.88
8.311e-02,-4.2,-4.52
8.313e-02,-4.12,-3.88
8.315e-02,-3.96,-4.44
8.317e-02,-3.56,-3.4
8.319e-02,-4.12,-4.76
8.321e-02,-4.2,-3.64
8.323e-02,-3.88,-4.68
8.325e-02,-4.04,-3.64
8.327e-02,-4.12,-4.6
8.328e-02,-4.52,-3.88
8.330e-02,-4.12,-4.36
8.332e-02,-3.96,-3.4
8.334e-02,-3.64,-4.28
8.336e-02,-3.72,-3.48
8.338e-02,-4.04,-4.36
8.340e-02,-4.12,-3.72
8.342e-02,-4.04,-4.6
8.344e-02,-4.44,-3.88
8.346e-02,-4.04,-4.36
8.348e-02,-4.04,-3.64
8.350e-02,-3.88,-4.2
8.351e-02,-3.8,-3.64
8.353e-02,-3.4,-4.6
8.355e-02,-4.12,-3.24
8.357e-02,-4.04,-4.52
8.359e-02,-4.28,-3.88
8.361e-02,-4.28,-4.36
8.363e-02,-3.88,-3.72
8.365e-02,-3.96,-4.28
8.367e-02,-3.8,-3.56
8.369e-02,-3.8,-4.2
8.371e-02,-4.04,-3.24
8.373e-02,-3.88,-4.2
8.375e-02,-4.04,-3.4
8.376e-02,-4.2,-4.52
8.378e-02,-4.04,-3.8
8.380e-02,-4.28,-4.52
8.382e-02,-4.04,-3.8
8.384e-02,-3.72,-4.44
8.386e-02,-4.04,-3.4
8.388e-02,-3.88,-4.44
8.390e-02,-4.28,-3.64
8.392e-02,-4.44,-4.68
8.394e-02,-4.28,-3.8
8.396e-02,-4.36,-4.52
8.398e-02,-4.12,-3.4
8.399e-02,-4.28,-4.36
8.401e-02,-3.88,-3.72
8.403e-02,-4.44,-4.52
8.405e-02,-3.8,-3.72
8.407e-02,-4.04,-4.36
8.409e-02,-4.28,-3.64
8.411e-02,-3.88,-4.44
8.413e-02,-4.12,-3.72
8.415e-02,-3.96,-4.44
8.417e-02,-3.8,-3.72
8.419e-02,-3.72,-4.2
8.421e-02,-4.12,-3.4
8.423e-02,-4.12,-4.44
8.424e-02,-4.28,-3.72
8.426e-02,-4.12,-4.36
8.428e-02,-3.88,-3.8
8.430e-02,-3.8,-4.36
8.432e-02,-4.12,-3.64
8.434e-02,-4.12,-4.52
8.436e-02,-4.04,-3.72
8.438e-02,-4.2,-4.44
8.440e-02,-4.36,-3.72
8.442e-02,-4.36,-4.92
8.444e-02,-4.36,-3.8
8.446e-02,-4.12,-4.68
8.447e-02,-4.44,-3.56
8.449e-02,-3.96,-4.28
8.451e-02,-3.8,-3.64
8.453e-02,-4.04,-4.36
8.455e-02,-4.12,-3.72
8.457e-02,-4.2,-4.6
8.459e-02,-4.36,-4.04
8.461e-02,-4.2,-4.52
8.463e-02,-3.88,-3.64
8.465e-02,-4.04,-4.36
8.467e-02,-4.12,-3.72
8.469e-02,-3.48,-4.36
8.471e-02,-3.96,-3.24
8.472e-02,-4.2,-4.44
8.474e-02,-4.28,-3.72
8.476e-02,-3.96,-4.28
8.478e-02,-4.04,-3.72
8.480e-02,-4.2,-4.36
8.482e-02,-4.04,-3.72
8.484e-02,-4.04,-4.36
8.486e-02,-3.8,-3.64
8.488e-02,-3.8,-4.44
8.490e-02,-4.28,-3.64
8.492e-02,-4.2,-4.6
8.494e-02,-4.12,-3.8
8.495e-02,-3.96,-4.44
8.497e-02,-4.28,-3.8
8.499e-02,-3.64,-4.36
8.501e-02,-3.96,-3.48
8.503e-02,-3.88,-4.28
8.505e-02,-3.64,-3.56
8.507e-02,-4.2,-4.36
8.509e-02,-4.12,-3.72
8.511e-02,-4.04,-4.44
8.513e-02,-4.04,-3.4
8.515e-02,-4.04,-4.68
8.517e-02,-3.56,-3.48
8.519e-02,-4.12,-4.68
8.520e-02,-4.04,-3.72
8.522e-02,-3.88,-4.28
8.524e-02,-3.48,-3.32
8.526e-02,-4.2,-4.52
8.528e-02,-4.44,-3.72
8.530e-02,-4.04,-4.6
8.532e-02,-4.44,-3.8
8.534e-02,-3.96,-4.28
8.536e-02,-3.96,-3.64
8.538e-02,-4.2,-4.44
8.540e-02,-4.12,-3.96
8.542e-02,-3.96,-4.44
8.543e-02,-3.96,-3.72
8.545e-02,-4.12,-4.28
8.547e-02,-4.04,-3.8
8.549e-02,-3.8,-4.52
8.551e-02,-3.72,-3.64
8.553e-02,-3.96,-4.44
8.555e-02,-4.28,-3.88
8.557e-02,-3.96,-4.68
8.559e-02,-4.04,-3.8
8.561e-02,-4.28,-4.68
8.563e-02,-4.36,-3.56
8.565e-02,-4.12,-4.28
8.567e-02,-4.04,-3.72
8.568e-02,-3.8,-4.52
8.570e-02,-3.72,-3.56
8.572e-02,-4.12,-4.52
8.574e-02,-4.04,-3.8
8.576e-02,-4.36,-4.52
8.578e-02,-4.04,-3.88
8.580e-02,-4.2,-4.36
8.582e-02,-3.8,-3.64
8.584e-02,-4.04,-4.44
8.586e-02,-4.12,-3.72
8.588e-02,-4.28,-4.6
8.590e-02,-3.96,-3.56
8.591e-02,-4.2,-4.6
8.593e-02,-4.44,-3.88
8.595e-02,-3.8,-4.52
8.597e-02,-4.12,-3.64
8.599e-02,-3.88,-4.44
8.601e-02,-3.8,-3.72
8.603e-02,-4.12,-4.36
8.605e-02,-4.04,-3.56
8.607e-02,-4.2,-4.36
8.609e-02,-4.2,-3.8
8.611e-02,-4.12,-4.36
8.613e-02,-3.88,-3.32
8.615e-02,-3.56,-4.2
8.616e-02,-3.88,-3.24
8.618e-02,-3.56,-4.28
8.620e-02,-4.12,-3.48
8.622e-02,-3.96,-4.68
8.624e-02,-4.12,-3.72
8.626e-02,-4.36,-4.44
8.628e-02,-4.28,-3.8
8.630e-02,-3.96,-4.28
8.632e-02,-4.12,-3.72
8.634e-02,-3.8,-4.44
8.636e-02,-4.2,-3.72
8.638e-02,-4.12,-4.44
8.639e-02,-4.28,-3.96
8.641e-02,-4.28,-4.52
8.643e-02,-4.12,-3.8
8.645e-02,-4.12,-4.52
8.647e-02,-4.04,-3.56
8.649e-02,-4.12,-4.36
8.651e-02,-3.64,-3.48
8.653e-02,-4.04,-4.52
8.655e-02,-4.12,-3.72
8.657e-02,-4.44,-4.76
8.659e-02,-4.36,-3.96
8.661e-02,-3.88,-4.52
8.663e-02,-4.12,-3.56
8.664e-02,-4.04,-4.2
8.666e-02,-3.72,-3.64
8.668e-02,-3.96,-4.2
8.670e-02,-3.96,-3.4
8.672e-02,-4.04,-4.36
8.674e-02,-3.96,-3.48
8.676e-02,-4.44,-4.6
8.678e-02,-4.28,-3.72
8.680e-02,-3.8,-4.44
8.682e-02,-4.12,-3.48
8.684e-02,-4.2,-4.44
8.686e-02,-4.04,-3.4
8.687e-02,-3.64,-4.28
8.689e-02,-4.2,-3.56
8.691e-02,-4.04,-4.6
8.693e-02,-4.12,-3.8
8.695e-02,-4.04,-4.52
8.697e-02,-4.2,-3.56
8.699e-02,-4.04,-4.28
8.701e-02,-4.04,-3.64
8.703e-02,-4.36,-4.44
8.705e-02,-4.2,-3.88
8.707e-02,-4.12,-4.52
8.709e-02,-4.28,-3.8
8.711e-02,-4.04,-4.52
8.712e-02,-4.2,-3.72
8.714e-02,-4.44,-4.52
8.716e-02,-3.64,-3.48
8.718e-02,-3.88,-4.6
8.720e-02,-4.36,-3.72
8.722e-02,-4.12,-4.6
8.724e-02,-4.12,-3.8
8.726e-02,-4.2,-4.44
8.728e-02,-4.2,-3.88
8.730e-02,-3.72,-4.2
8.732e-02,-3.64,-3.56
8.734e-02,-3.88,-4.6
8.735e-02,-4.36,-3.64
8.737e-02,-4.2,-4.6
8.739e-02,-4.12,-3.96
8.741e-02,-3.96,-4.52
8.743e-02,-3.96,-3.72
8.745e-02,-4.04,-4.52
8.747e-02,-3.96,-3.64
8.749e-02,-4.12,-4.52
8.751e-02,-4.36,-3.64
8.753e-02,-4.04,-4.6
8.755e-02,-4.36,-3.64
8.757e-02,-4.28,-4.76
8.759e-02,-3.96,-3.64
8.760e-02,-3.88,-4.2
8.762e-02,-3.96,-3.48
8.764e-02,-3.88,-4.44
8.766e-02,-4.2,-3.56
8.768e-02,-4.12,-4.44
8.770e-02,-4.12,-3.8
8.772e-02,-4.2,-4.52
8.774e-02,-4.28,-3.88
8.776e-02,-4.36,-4.6
8.778e-02,-4.04,-3.96
8.780e-02,-4.44,-4.52
8.782e-02,-4.28,-3.64
8.784e-02,-3.8,-4.44
8.785e-02,-4.12,-3.64
8.787e-02,-3.8,-4.52
8.789e-02,-4.28,-3.72
8.791e-02,-3.64,-4.6
8.793e-02,-4.36,-3.56
8.795e-02,-4.28,-4.52
8.797e-02,-3.88,-3.72
8.799e-02,-3.64,-4.44
8.801e-02,-4.28,-3.56
8.803e-02,-4.44,-4.68
8.805e-02,-4.44,-3.8
8.807e-02,-4.12,-4.68
8.808e-02,-4.12,-3.88
8.810e-02,-4.12,-4.44
8.812e-02,-4.12,-3.64
8.814e-02,-3.88,-4.36
8.816e-02,-3.96,-3.72
8.818e-02,-3.72,-4.52
8.820e-02,-4.2,-3.56
8.822e-02,-4.36,-4.52
8.824e-02,-4.2,-3.72
8.826e-02,-4.12,-4.52
8.828e-02,-4.2,-3.64
8.830e-02,-3.8,-4.28
8.832e-02,-3.64,-3.48
8.833e-02,-3.96,-4.44
8.835e-02,-3.96,-3.72
8.837e-02,-4.2,-4.52
8.839e-02,-4.2,-3.96
8.841e-02,-3.96,-4.52
8.843e-02,-4.2,-3.72
8.845e-02,-3.8,-4.2
8.847e-02,-3.56,-3.24
8.849e-02,-4.2,-4.44
8.851e-02,-4.2,-3.64
8.853e-02,-4.04,-4.6
8.855e-02,-4.12,-3.96
8.856e-02,-3.96,-4.52
8.858e-02,-3.88,-3.64
8.860e-02,-4.28,-4.68
8.862e-02,-3.64,-3.48
8.864e-02,-3.96,-4.28
8.866e-02,-3.88,-3.56
8.868e-02,-4.28,-4.44
8.870e-02,-4.2,-3.8
8.872e-02,-3.96,-4.44
8.874e-02,-4.12,-3.88
8.876e-02,-4.28,-4.36
8.878e-02,-3.96,-3.64
8.880e-02,-4.12,-4.44
8.881e-02,-4.28,-3.88
8.883e-02,-3.88,-4.36
8.885e-02,-3.96,-3.72
8.887e-02,-3.88,-4.6
8.889e-02,-4.36,-3.8
8.891e-02,-4.12,-4.52
8.893e-02,-3.96,-3.72
8.895e-02,-4.04,-4.52
8.897e-02,-4.12,-3.8
8.899e-02,-3.8,-4.52
8.901e-02,-3.88,-3.56
8.903e-02,-4.28,-4.52
8.904e-02,-4.2,-3.88
8.906e-02,-3.88,-4.28
8.908e-02,-4.04,-3.72
8.910e-02,-3.96,-4.6
8.912e-02,-4.12,-3.8
8.914e-02,-4.28,-4.68
8.916e-02,-3.72,-3.64
8.918e-02,-3.96,-4.28
8.920e-02,-3.8,-3.64
8.922e-02,-3.72,-4.6
8.924e-02,-4.44,-3.64
8.926e-02,-4.28,-4.44
8.928e-02,-3.96,-3.72
8.929e-02,-3.72,-4.44
8.931e-02,-4.12,-3.56
8.933e-02,-4.2,-4.6
8.935e-02,-4.12,-3.72
8.937e-02,-4.04,-4.52
8.939e-02,-4.44,-3.96
8.941e-02,-4.28,-4.52
8.943e-02,-4.12,-3.8
8.945e-02,-4.2,-4.68
8.947e-02,-3.56,-3.4
8.949e-02,-3.56,-4.36
8.951e-02,-3.8,-3.48
8.952e-02,-4.04,-4.52
8.954e-02,-3.72,-3.64
8.956e-02,-4.36,-4.68
8.958e-02,-3.96,-3.64
8.960e-02,-3.88,-4.36
8.962e-02,-4.2,-3.48
8.964e-02,-3.8,-4.44
8.966e-02,-4.04,-3.4
8.968e-02,-3.56,-4.6
8.970e-02,-4.2,-3.48
8.972e-02,-4.12,-4.36
8.974e-02,-4.28,-3.88
8.976e-02,-4.04,-4.44
8.977e-02,-3.96,-3.8
8.979e-02,-4.04,-4.2
8.981e-02,-3.72,-3.64
8.983e-02,-3.72,-4.44
8.985e-02,-3.64,-3.56
8.987e-02,-4.04,-4.68
8.989e-02,-4.04,-3.88
8.991e-02,-4.12,-4.28
8.993e-02,-3.96,-3.8
8.995e-02,-4.2,-4.44
8.997e-02,-4.36,-3.64
8.999e-02,-3.88,-4.2
9.000e-02,-3.96,-3.64
9.002e-02,-3.88,-4.6
9.004e-02,-4.28,-3.72
9.006e-02,-4.28,-4.68
9.008e-02,-3.88,-3.8
9.010e-02,-4.04,-4.52
9.012e-02,-3.96,-3.56
9.014e-02,-3.8,-4.6
9.016e-02,-4.44,-3.56
9.018e-02,-3.88,-4.44
9.020e-02,-4.12,-3.64
9.022e-02,-4.44,-4.6
9.024e-02,-4.12,-3.96
9.025e-02,-4.12,-4.44
9.027e-02,-4.04,-3.96
9.029e-02,-3.56,-4.36
9.031e-02,-4.12,-3.32
9.033e-02,-4.36,-4.52
9.035e-02,-3.8,-3.72
9.037e-02,-4.12,-4.44
9.039e-02,-4.2,-3.72
9.041e-02,-4.12,-4.52
9.043e-02,-3.96,-3.56
9.045e-02,-3.8,-4.52
9.047e-02,-3.48,-3.24
9.048e-02,-3.88,-4.2
9.050e-02,-3.72,-3.64
9.052e-02,-4.04,-4.28
9.054e-02,-3.96,-3.64
9.056e-02,-4.2,-4.44

